Data from USB4F104151__302__11-21-38-525.txt Node

Date: Wed Feb 26 11:21:38 EST 2025
User: louis
Spectrometer: USB4F10415
Trigger mode: 4
Integration Time (sec): 1.000000E-1
Scans to average: 1
Electric dark correction enabled: true
Nonlinearity correction enabled: false
Boxcar width: 0
XAxis mode: Wavelengths
Number of Pixels in Spectrum: 3648
>>>>>Begin Spectral Data<<<<<
178.204	-343.21
178.424	-343.21
178.644	-343.21
178.864	-410.79
179.084	-416.93
179.304	-1.19
179.524	-27.82
179.744	54.1
179.964	-33.96
180.184	-15.53
180.404	15.19
180.624	-42.15
180.844	68.44
181.064	-52.39
181.283	45.91
181.503	-48.3
181.723	37.72
181.943	-97.45
182.163	199.51
182.383	-13.48
182.602	-7.34
182.822	101.2
183.042	95.06
183.262	-48.3
183.482	17.24
183.701	27.48
183.921	-11.43
184.141	-33.96
184.361	138.07
184.58	60.24
184.8	27.48
185.02	-27.82
185.239	39.76
185.459	66.39
185.679	84.82
185.898	-48.3
186.118	62.29
186.338	56.15
186.557	97.11
186.777	-76.97
186.997	-23.72
187.216	54.1
187.436	111.44
187.655	43.86
187.875	39.76
188.095	13.14
188.314	103.25
188.534	97.11
188.753	23.38
188.973	97.11
189.192	58.2
189.412	54.1
189.631	-36.01
189.851	33.62
190.07	193.36
190.29	-97.45
190.509	-13.48
190.729	84.82
190.948	142.16
191.168	297.81
191.387	50
191.607	-3.24
191.826	125.78
192.045	-70.83
192.265	45.91
192.484	15.19
192.704	68.44
192.923	-66.73
193.142	109.4
193.362	41.81
193.581	138.07
193.8	129.88
194.02	84.82
194.239	13.14
194.458	27.48
194.678	-11.43
194.897	-27.82
195.116	148.31
195.335	-27.82
195.555	76.63
195.774	4.95
195.993	176.98
196.212	23.38
196.432	62.29
196.651	15.19
196.87	27.48
197.089	205.65
197.308	15.19
197.528	13.14
197.747	17.24
197.966	107.35
198.185	111.44
198.404	-56.49
198.623	176.98
198.842	136.02
199.062	113.49
199.281	127.83
199.5	-11.43
199.719	52.05
199.938	-25.77
200.157	60.24
200.376	105.3
200.595	90.96
200.814	84.82
201.033	9.05
201.252	146.26
201.471	97.11
201.69	60.24
201.909	72.53
202.128	144.21
202.347	-13.48
202.566	37.72
202.785	-38.06
203.004	2.9
203.223	185.17
203.442	2.9
203.661	-74.92
203.879	76.63
204.098	207.7
204.317	-70.83
204.536	109.4
204.755	37.72
204.974	82.77
205.193	33.62
205.411	174.93
205.63	31.57
205.849	62.29
206.068	-1.19
206.287	7
206.505	103.25
206.724	56.15
206.943	29.52
207.162	39.76
207.381	101.2
207.599	-19.63
207.818	-7.34
208.037	0.85
208.255	31.57
208.474	7
208.693	31.57
208.911	50
209.13	95.06
209.349	93.01
209.567	54.1
209.786	58.2
210.005	84.82
210.223	60.24
210.442	-31.91
210.661	68.44
210.879	107.35
211.098	11.09
211.316	74.58
211.535	0.85
211.753	0.85
211.972	43.86
212.191	-70.83
212.409	-19.63
212.628	45.91
212.846	-9.39
213.065	27.48
213.283	111.44
213.502	29.52
213.72	80.72
213.938	45.91
214.157	29.52
214.375	170.83
214.594	-29.87
214.812	72.53
215.031	-9.39
215.249	7
215.467	43.86
215.686	52.05
215.904	70.48
216.122	115.54
216.341	168.79
216.559	56.15
216.778	136.02
216.996	113.49
217.214	37.72
217.432	37.72
217.651	-142.5
217.869	2.9
218.087	-56.49
218.306	56.15
218.524	56.15
218.742	-15.53
218.96	99.16
219.179	-33.96
219.397	39.76
219.615	295.76
219.833	109.4
220.051	21.33
220.27	45.91
220.488	107.35
220.706	60.24
220.924	7
221.142	82.77
221.36	37.72
221.578	-11.43
221.796	-9.39
222.015	95.06
222.233	-5.29
222.451	185.17
222.669	-13.48
222.887	84.82
223.105	37.72
223.323	97.11
223.541	-31.91
223.759	43.86
223.977	-5.29
224.195	131.92
224.413	50
224.631	93.01
224.849	72.53
225.067	154.45
225.285	45.91
225.503	-5.29
225.721	-140.46
225.939	-3.24
226.157	78.68
226.375	213.84
226.592	7
226.81	117.59
227.028	54.1
227.246	160.59
227.464	39.76
227.682	86.87
227.9	31.57
228.117	58.2
228.335	86.87
228.553	33.62
228.771	-19.63
228.989	64.34
229.206	170.83
229.424	27.48
229.642	-38.06
229.86	-13.48
230.077	111.44
230.295	33.62
230.513	105.3
230.731	74.58
230.948	148.31
231.166	136.02
231.384	-29.87
231.601	2.9
231.819	154.45
232.037	-50.35
232.254	-48.3
232.472	13.14
232.689	17.24
232.907	103.25
233.125	-7.34
233.342	-21.67
233.56	72.53
233.777	-13.48
233.995	2.9
234.213	121.68
234.43	76.63
234.648	78.68
234.865	4.95
235.083	131.92
235.3	66.39
235.518	146.26
235.735	82.77
235.953	129.88
236.17	84.82
236.388	23.38
236.605	-19.63
236.822	93.01
237.04	105.3
237.257	39.76
237.475	-105.64
237.692	2.9
237.909	127.83
238.127	-9.39
238.344	88.92
238.562	60.24
238.779	-31.91
238.996	-58.54
239.214	31.57
239.431	60.24
239.648	-25.77
239.865	101.2
240.083	39.76
240.3	7
240.517	-3.24
240.735	25.43
240.952	154.45
241.169	31.57
241.386	52.05
241.603	31.57
241.821	-54.44
242.038	99.16
242.255	45.91
242.472	-46.25
242.689	41.81
242.907	39.76
243.124	-9.39
243.341	-7.34
243.558	-33.96
243.775	-89.26
243.992	-72.87
244.209	58.2
244.426	150.36
244.643	56.15
244.86	60.24
245.078	19.29
245.295	187.22
245.512	7
245.729	-13.48
245.946	72.53
246.163	129.88
246.38	74.58
246.597	29.52
246.814	47.96
247.031	-17.58
247.248	0.85
247.464	80.72
247.681	11.09
247.898	21.33
248.115	64.34
248.332	-5.29
248.549	142.16
248.766	86.87
248.983	115.54
249.2	93.01
249.417	166.74
249.633	-13.48
249.85	66.39
250.067	39.76
250.284	64.34
250.501	9.05
250.717	52.05
250.934	-19.63
251.151	-7.34
251.368	70.48
251.585	64.34
251.801	88.92
252.018	-36.01
252.235	97.11
252.451	-83.11
252.668	68.44
252.885	113.49
253.102	25.43
253.318	-42.15
253.535	-5.29
253.752	-44.2
253.968	-50.35
254.185	-42.15
254.401	25.43
254.618	9.05
254.835	-36.01
255.051	70.48
255.268	60.24
255.484	-9.39
255.701	19.29
255.917	70.48
256.134	15.19
256.351	58.2
256.567	-97.45
256.784	19.29
257	-42.15
257.217	109.4
257.433	82.77
257.65	56.15
257.866	144.21
258.082	-66.73
258.299	-15.53
258.515	-13.48
258.732	66.39
258.948	-25.77
259.165	52.05
259.381	-60.59
259.597	52.05
259.814	19.29
260.03	43.86
260.246	9.05
260.463	93.01
260.679	107.35
260.895	58.2
261.112	105.3
261.328	-23.72
261.544	-42.15
261.761	289.62
261.977	-5.29
262.193	-126.12
262.409	117.59
262.626	64.34
262.842	7
263.058	-50.35
263.274	56.15
263.49	70.48
263.707	23.38
263.923	113.49
264.139	-74.92
264.355	111.44
264.571	23.38
264.787	11.09
265.004	90.96
265.22	11.09
265.436	-68.78
265.652	-13.48
265.868	47.96
266.084	-62.63
266.3	17.24
266.516	33.62
266.732	-7.34
266.948	-17.58
267.164	-33.96
267.38	136.02
267.596	86.87
267.812	142.16
268.028	23.38
268.244	-9.39
268.46	103.25
268.676	50
268.892	23.38
269.108	-42.15
269.324	-29.87
269.54	-40.11
269.756	29.52
269.972	-19.63
270.188	17.24
270.403	27.48
270.619	56.15
270.835	127.83
271.051	21.33
271.267	-5.29
271.483	25.43
271.698	58.2
271.914	-13.48
272.13	31.57
272.346	-13.48
272.562	25.43
272.777	113.49
272.993	72.53
273.209	17.24
273.425	56.15
273.64	23.38
273.856	154.45
274.072	-19.63
274.287	-76.97
274.503	131.92
274.719	119.64
274.934	-66.73
275.15	-72.87
275.366	-17.58
275.581	-79.02
275.797	45.91
276.012	-29.87
276.228	2.9
276.444	90.96
276.659	111.44
276.875	-17.58
277.09	-9.39
277.306	-15.53
277.521	13.14
277.737	136.02
277.952	93.01
278.168	-46.25
278.383	64.34
278.599	19.29
278.814	31.57
279.03	103.25
279.245	164.69
279.461	-23.72
279.676	101.2
279.892	-138.41
280.107	-70.83
280.322	-40.11
280.538	2.9
280.753	-54.44
280.969	78.68
281.184	-33.96
281.399	199.51
281.615	-9.39
281.83	58.2
282.045	-81.07
282.26	35.67
282.476	27.48
282.691	45.91
282.906	76.63
283.122	9.05
283.337	43.86
283.552	4.95
283.767	76.63
283.983	50
284.198	56.15
284.413	80.72
284.628	9.05
284.843	33.62
285.058	54.1
285.274	103.25
285.489	-31.91
285.704	74.58
285.919	-33.96
286.134	-60.59
286.349	45.91
286.564	-93.35
286.779	170.83
286.995	31.57
287.21	-66.73
287.425	41.81
287.64	-23.72
287.855	109.4
288.07	-36.01
288.285	201.55
288.5	54.1
288.715	76.63
288.93	0.85
289.145	15.19
289.36	78.68
289.575	9.05
289.79	127.83
290.004	-93.35
290.219	0.85
290.434	-33.96
290.649	50
290.864	15.19
291.079	-5.29
291.294	27.48
291.509	58.2
291.724	21.33
291.938	0.85
292.153	84.82
292.368	68.44
292.583	90.96
292.798	2.9
293.012	70.48
293.227	72.53
293.442	54.1
293.657	99.16
293.871	109.4
294.086	-21.67
294.301	158.55
294.516	187.22
294.73	56.15
294.945	-36.01
295.16	-5.29
295.374	172.88
295.589	164.69
295.804	-23.72
296.018	13.14
296.233	105.3
296.447	86.87
296.662	-23.72
296.877	113.49
297.091	52.05
297.306	9.05
297.52	62.29
297.735	4.95
297.949	-3.24
298.164	2.9
298.378	43.86
298.593	21.33
298.807	33.62
299.022	43.86
299.236	111.44
299.451	33.62
299.665	-64.68
299.88	-17.58
300.094	111.44
300.309	56.15
300.523	66.39
300.737	68.44
300.952	50
301.166	39.76
301.381	-76.97
301.595	-1.19
301.809	-7.34
302.024	2.9
302.238	-50.35
302.452	88.92
302.667	-11.43
302.881	107.35
303.095	109.4
303.309	27.48
303.524	27.48
303.738	15.19
303.952	15.19
304.166	70.48
304.381	-128.17
304.595	172.88
304.809	-11.43
305.023	9.05
305.237	-33.96
305.452	17.24
305.666	-19.63
305.88	84.82
306.094	101.2
306.308	41.81
306.522	105.3
306.736	2.9
306.95	150.36
307.164	4.95
307.379	64.34
307.593	99.16
307.807	133.97
308.021	35.67
308.235	11.09
308.449	-21.67
308.663	52.05
308.877	203.6
309.091	90.96
309.305	60.24
309.519	-21.67
309.733	23.38
309.947	-11.43
310.161	131.92
310.374	107.35
310.588	82.77
310.802	0.85
311.016	4.95
311.23	56.15
311.444	-83.11
311.658	2.9
311.872	84.82
312.085	88.92
312.299	148.31
312.513	123.73
312.727	47.96
312.941	-56.49
313.154	68.44
313.368	-25.77
313.582	31.57
313.796	154.45
314.009	82.77
314.223	107.35
314.437	39.76
314.651	109.4
314.864	29.52
315.078	-9.39
315.292	-87.21
315.505	13.14
315.719	9.05
315.933	47.96
316.146	13.14
316.36	2.9
316.573	156.5
316.787	93.01
317.001	-19.63
317.214	-1.19
317.428	115.54
317.641	-36.01
317.855	2.9
318.068	39.76
318.282	-42.15
318.495	158.55
318.709	138.07
318.922	-19.63
319.136	181.07
319.349	93.01
319.563	-31.91
319.776	90.96
319.99	-113.83
320.203	115.54
320.417	-17.58
320.63	41.81
320.843	105.3
321.057	39.76
321.27	-52.39
321.483	50
321.697	90.96
321.91	43.86
322.124	47.96
322.337	37.72
322.55	-60.59
322.763	45.91
322.977	-48.3
323.19	9.05
323.403	68.44
323.617	90.96
323.83	82.77
324.043	35.67
324.256	70.48
324.469	-13.48
324.683	105.3
324.896	21.33
325.109	45.91
325.322	-54.44
325.535	80.72
325.748	33.62
325.962	54.1
326.175	62.29
326.388	64.34
326.601	131.92
326.814	19.29
327.027	88.92
327.24	144.21
327.453	-97.45
327.666	80.72
327.879	119.64
328.092	101.2
328.305	41.81
328.518	-23.72
328.731	-27.82
328.944	4.95
329.157	23.38
329.37	-7.34
329.583	103.25
329.796	105.3
330.009	-19.63
330.222	101.2
330.435	84.82
330.648	23.38
330.861	47.96
331.073	56.15
331.286	80.72
331.499	62.29
331.712	33.62
331.925	-5.29
332.138	33.62
332.35	170.83
332.563	15.19
332.776	86.87
332.989	-25.77
333.202	-21.67
333.414	72.53
333.627	50
333.84	52.05
334.053	72.53
334.265	7
334.478	-42.15
334.691	-5.29
334.903	0.85
335.116	11.09
335.329	29.52
335.541	43.86
335.754	133.97
335.966	-36.01
336.179	-3.24
336.392	9.05
336.604	-50.35
336.817	21.33
337.029	52.05
337.242	-9.39
337.454	107.35
337.667	-27.82
337.88	127.83
338.092	72.53
338.305	99.16
338.517	39.76
338.729	160.59
338.942	74.58
339.154	-27.82
339.367	60.24
339.579	60.24
339.792	-5.29
340.004	70.48
340.217	-1.19
340.429	2.9
340.641	-3.24
340.854	-25.77
341.066	19.29
341.278	111.44
341.491	131.92
341.703	52.05
341.915	-48.3
342.128	82.77
342.34	78.68
342.552	-42.15
342.764	29.52
342.977	56.15
343.189	60.24
343.401	86.87
343.613	-25.77
343.826	68.44
344.038	-74.92
344.25	68.44
344.462	-23.72
344.674	58.2
344.886	45.91
345.099	-11.43
345.311	66.39
345.523	-42.15
345.735	-54.44
345.947	-31.91
346.159	76.63
346.371	86.87
346.583	-17.58
346.795	238.42
347.007	-3.24
347.219	123.73
347.431	15.19
347.643	158.55
347.855	15.19
348.067	52.05
348.279	25.43
348.491	-9.39
348.703	45.91
348.915	29.52
349.127	0.85
349.339	56.15
349.551	43.86
349.763	70.48
349.975	37.72
350.187	41.81
350.399	45.91
350.61	119.64
350.822	-42.15
351.034	72.53
351.246	31.57
351.458	35.67
351.669	99.16
351.881	93.01
352.093	50
352.305	80.72
352.517	62.29
352.728	117.59
352.94	-46.25
353.152	109.4
353.363	-17.58
353.575	41.81
353.787	260.95
353.999	11.09
354.21	179.03
354.422	-17.58
354.633	-21.67
354.845	4.95
355.057	43.86
355.268	74.58
355.48	88.92
355.692	2.9
355.903	37.72
356.115	-19.63
356.326	-107.69
356.538	174.93
356.749	125.78
356.961	164.69
357.172	29.52
357.384	-81.07
357.595	164.69
357.807	2.9
358.018	50
358.23	90.96
358.441	164.69
358.653	-7.34
358.864	-7.34
359.075	-46.25
359.287	115.54
359.498	86.87
359.709	107.35
359.921	-9.39
360.132	66.39
360.344	2.9
360.555	4.95
360.766	31.57
360.977	17.24
361.189	146.26
361.4	-23.72
361.611	29.52
361.823	64.34
362.034	21.33
362.245	-81.07
362.456	-1.19
362.667	66.39
362.879	11.09
363.09	99.16
363.301	-46.25
363.512	-3.24
363.723	31.57
363.935	-1.19
364.146	119.64
364.357	11.09
364.568	74.58
364.779	-44.2
364.99	99.16
365.201	0.85
365.412	158.55
365.623	-126.12
365.834	47.96
366.045	-15.53
366.256	31.57
366.467	60.24
366.678	13.14
366.889	41.81
367.1	29.52
367.311	19.29
367.522	-23.72
367.733	37.72
367.944	37.72
368.155	-9.39
368.366	17.24
368.577	27.48
368.788	117.59
368.999	-7.34
369.209	-46.25
369.42	281.43
369.631	211.79
369.842	133.97
370.053	-17.58
370.264	142.16
370.474	-1.19
370.685	0.85
370.896	-46.25
371.107	119.64
371.317	64.34
371.528	62.29
371.739	47.96
371.95	66.39
372.16	47.96
372.371	-66.73
372.582	-52.39
372.792	97.11
373.003	105.3
373.214	33.62
373.424	156.5
373.635	-21.67
373.846	109.4
374.056	99.16
374.267	-23.72
374.477	17.24
374.688	9.05
374.898	80.72
375.109	-13.48
375.319	-17.58
375.53	62.29
375.74	95.06
375.951	-7.34
376.161	-1.19
376.372	111.44
376.582	-19.63
376.793	58.2
377.003	-9.39
377.214	-103.59
377.424	84.82
377.635	58.2
377.845	7
378.055	105.3
378.266	-15.53
378.476	33.62
378.686	88.92
378.897	23.38
379.107	123.73
379.317	43.86
379.528	29.52
379.738	127.83
379.948	2.9
380.158	99.16
380.369	95.06
380.579	68.44
380.789	-3.24
380.999	64.34
381.21	105.3
381.42	219.99
381.63	43.86
381.84	131.92
382.05	60.24
382.261	144.21
382.471	127.83
382.681	-36.01
382.891	117.59
383.101	27.48
383.311	17.24
383.521	-19.63
383.731	47.96
383.941	4.95
384.151	90.96
384.361	-7.34
384.571	103.25
384.781	54.1
384.991	125.78
385.201	179.03
385.411	-3.24
385.621	84.82
385.831	13.14
386.041	72.53
386.251	17.24
386.461	13.14
386.671	101.2
386.881	88.92
387.091	-13.48
387.301	107.35
387.511	64.34
387.72	105.3
387.93	39.76
388.14	37.72
388.35	109.4
388.56	138.07
388.769	82.77
388.979	-23.72
389.189	-7.34
389.399	-9.39
389.609	80.72
389.818	101.2
390.028	35.67
390.238	86.87
390.447	-99.5
390.657	23.38
390.867	-95.4
391.076	4.95
391.286	47.96
391.496	33.62
391.705	-42.15
391.915	146.26
392.125	45.91
392.334	-33.96
392.544	138.07
392.753	11.09
392.963	-1.19
393.172	-25.77
393.382	2.9
393.591	136.02
393.801	-50.35
394.01	215.89
394.22	119.64
394.429	47.96
394.639	4.95
394.848	-23.72
395.058	78.68
395.267	0.85
395.477	62.29
395.686	127.83
395.895	109.4
396.105	234.32
396.314	99.16
396.524	21.33
396.733	-31.91
396.942	209.75
397.152	47.96
397.361	205.65
397.57	82.77
397.78	43.86
397.989	111.44
398.198	226.13
398.407	39.76
398.617	66.39
398.826	76.63
399.035	-1.19
399.244	95.06
399.453	60.24
399.663	11.09
399.872	84.82
400.081	-7.34
400.29	179.03
400.499	-58.54
400.708	95.06
400.917	19.29
401.127	45.91
401.336	50
401.545	248.66
401.754	127.83
401.963	80.72
402.172	35.67
402.381	-19.63
402.59	21.33
402.799	-38.06
403.008	70.48
403.217	-19.63
403.426	21.33
403.635	-38.06
403.844	-42.15
404.053	35.67
404.262	13.14
404.471	160.59
404.68	80.72
404.888	-31.91
405.097	-17.58
405.306	86.87
405.515	97.11
405.724	33.62
405.933	123.73
406.142	52.05
406.35	78.68
406.559	9.05
406.768	86.87
406.977	195.41
407.185	-48.3
407.394	70.48
407.603	-1.19
407.812	0.85
408.02	68.44
408.229	35.67
408.438	60.24
408.646	17.24
408.855	-21.67
409.064	97.11
409.272	37.72
409.481	88.92
409.69	-62.63
409.898	-33.96
410.107	19.29
410.315	33.62
410.524	-21.67
410.733	-17.58
410.941	-5.29
411.15	109.4
411.358	101.2
411.567	162.64
411.775	97.11
411.984	72.53
412.192	99.16
412.401	17.24
412.609	123.73
412.818	228.18
413.026	72.53
413.234	68.44
413.443	72.53
413.651	-5.29
413.86	-21.67
414.068	197.46
414.276	158.55
414.485	-15.53
414.693	195.41
414.901	275.28
415.11	113.49
415.318	-9.39
415.526	27.48
415.734	144.21
415.943	2.9
416.151	115.54
416.359	23.38
416.567	142.16
416.776	72.53
416.984	109.4
417.192	191.31
417.4	-9.39
417.608	68.44
417.817	-21.67
418.025	125.78
418.233	144.21
418.441	47.96
418.649	-36.01
418.857	80.72
419.065	52.05
419.273	37.72
419.481	74.58
419.689	47.96
419.897	-36.01
420.105	-72.87
420.313	97.11
420.521	125.78
420.729	99.16
420.937	25.43
421.145	0.85
421.353	74.58
421.561	68.44
421.769	7
421.977	19.29
422.185	150.36
422.393	99.16
422.601	119.64
422.809	39.76
423.017	33.62
423.224	107.35
423.432	111.44
423.64	47.96
423.848	101.2
424.056	4.95
424.263	179.03
424.471	54.1
424.679	105.3
424.887	13.14
425.094	107.35
425.302	187.22
425.51	60.24
425.718	37.72
425.925	47.96
426.133	72.53
426.341	164.69
426.548	68.44
426.756	9.05
426.964	66.39
427.171	25.43
427.379	121.68
427.586	0.85
427.794	74.58
428.001	66.39
428.209	29.52
428.417	103.25
428.624	90.96
428.832	146.26
429.039	64.34
429.247	47.96
429.454	86.87
429.662	242.51
429.869	154.45
430.076	-3.24
430.284	113.49
430.491	183.12
430.699	93.01
430.906	174.93
431.114	93.01
431.321	181.07
431.528	54.1
431.736	101.2
431.943	123.73
432.15	140.12
432.358	273.23
432.565	271.19
432.772	13.14
432.979	144.21
433.187	174.93
433.394	170.83
433.601	172.88
433.808	246.61
434.016	213.84
434.223	230.23
434.43	166.74
434.637	279.38
434.844	176.98
435.052	267.09
435.259	267.09
435.466	279.38
435.673	269.14
435.88	291.66
436.087	197.46
436.294	279.38
436.501	398.16
436.708	306
436.915	267.09
437.122	287.57
437.329	258.9
437.537	301.9
437.743	283.47
437.95	398.16
438.157	306
438.364	371.54
438.571	314.19
438.778	490.32
438.985	420.69
439.192	381.78
439.399	383.82
439.606	418.64
439.813	373.58
440.02	551.76
440.227	586.57
440.433	590.67
440.64	459.6
440.847	410.45
441.054	502.61
441.261	609.1
441.467	570.19
441.674	516.94
441.881	543.57
442.088	475.98
442.294	736.07
442.501	668.49
442.708	795.47
442.914	711.5
443.121	772.94
443.328	760.65
443.534	850.76
443.741	799.56
443.948	695.11
444.154	875.34
444.361	1090.37
444.568	922.44
444.774	985.93
444.981	858.95
445.187	1049.41
445.394	1069.89
445.6	1006.41
445.807	1203.01
446.013	1082.18
446.22	1012.55
446.426	1235.78
446.633	1258.31
446.839	1471.29
447.046	1360.7
447.252	1469.25
447.459	1491.77
447.665	1469.25
447.871	1542.97
448.078	1801.02
448.284	1780.54
448.491	1725.24
448.697	1915.7
448.903	2048.82
449.11	1989.43
449.316	1948.47
449.522	2169.65
449.728	2192.18
449.935	2290.48
450.141	2218.8
450.347	2487.09
450.553	2392.88
450.76	2560.81
450.966	2587.44
451.172	2730.8
451.378	2861.87
451.584	2812.71
451.791	3044.13
451.997	3203.88
452.203	3183.4
452.409	3201.83
452.615	3543.84
452.821	3386.15
453.027	3470.11
453.233	3844.89
453.44	3810.08
453.646	3914.52
453.852	4252.44
454.058	4225.81
454.264	4348.69
454.47	4770.57
454.676	4627.21
454.882	5147.4
455.088	5075.72
455.294	5217.03
455.5	5651.2
455.705	5960.44
455.911	5952.25
456.117	5839.61
456.323	6279.93
456.529	6284.02
456.735	6656.75
456.941	7115.5
457.147	7379.68
457.352	7529.19
457.558	7654.11
457.764	7987.93
457.97	8170.2
458.176	8688.34
458.381	9110.22
458.587	9505.48
458.793	9978.56
458.999	9673.41
459.204	10918.57
459.41	11510.44
459.616	11188.91
459.821	12098.2
460.027	12337.82
460.233	12892.82
460.438	12806.8
460.644	13902.47
460.85	13795.97
461.055	14527.1
461.261	15118.96
461.466	14735.99
461.672	15174.25
461.878	16878.16
462.083	16636.5
462.289	16792.15
462.494	17738.31
462.7	17562.19
462.905	17945.16
463.111	19730.98
463.316	20556.32
463.522	21008.92
463.727	21633.55
463.932	22284.8
464.138	23071.22
464.343	24070.63
464.549	23994.86
464.754	25977.29
464.959	26739.13
465.165	26763.71
465.37	26878.4
465.575	26876.35
465.781	28735.9
465.986	29626.77
466.191	29192.6
466.397	29456.79
466.602	28619.17
466.807	30364.04
467.012	31015.29
467.218	31332.73
467.423	31422.84
467.628	32764.26
467.833	34165.07
468.038	33700.18
468.244	32627.04
468.449	34722.12
468.654	33755.47
468.859	33890.64
469.064	33753.43
469.269	33165.66
469.474	33335.64
469.679	34500.93
469.885	33349.98
470.09	33958.22
470.295	33947.98
470.5	33419.61
470.705	33503.57
470.91	32672.1
471.115	32713.06
471.32	32696.67
471.525	32680.29
471.73	31590.77
471.935	31531.38
472.139	30433.67
472.344	30296.46
472.549	30525.83
472.754	29589.91
472.959	28721.57
473.164	28070.31
473.369	27505.07
473.574	28516.77
473.778	27601.33
473.983	27210.17
474.188	26714.56
474.393	25704.91
474.598	25450.96
474.802	24822.23
475.007	24764.89
475.212	24648.16
475.417	23650.8
475.621	23126.52
475.826	23194.1
476.031	22622.72
476.235	21944.84
476.44	22190.59
476.645	21400.08
476.849	21047.83
477.054	20898.33
477.259	20199.97
477.463	20292.13
477.668	19708.46
477.872	20023.84
478.077	19526.19
478.282	18580.03
478.486	18422.33
478.691	18641.46
478.895	17969.73
479.1	18086.47
479.304	18035.27
479.509	17293.9
479.713	17642.06
479.918	17078.86
480.122	17042
480.326	17199.69
480.531	16927.32
480.735	16607.83
480.94	16224.86
481.144	17119.82
481.348	16020.06
481.553	16063.07
481.757	15579.75
481.961	15608.42
482.166	15950.43
482.37	15940.19
482.574	15399.53
482.778	15356.52
482.983	15561.32
483.187	15137.39
483.391	15491.69
483.595	14959.22
483.8	14807.67
484.004	14875.25
484.208	14938.74
484.412	14549.62
484.616	14457.46
484.821	14297.72
485.025	13679.24
485.229	14021.25
485.433	13916.8
485.637	13593.22
485.841	13187.72
486.045	13343.37
486.249	12989.07
486.453	12839.57
486.657	12702.36
486.861	12497.56
487.065	12090.01
487.269	12374.68
487.473	11690.66
487.677	11809.44
487.881	11750.05
488.085	11360.94
488.289	11358.89
488.493	10803.89
488.697	10947.25
488.901	10785.46
489.105	10525.36
489.309	10478.26
489.512	10289.85
489.716	9929.41
489.92	9605.83
490.124	9638.59
490.328	9777.86
490.531	9247.43
490.735	9202.38
490.939	8950.48
491.143	8862.41
491.346	8653.52
491.55	8655.57
491.754	8399.57
491.958	8131.29
492.161	8116.95
492.365	8178.39
492.569	7826.14
492.772	7693.02
492.976	7928.54
493.18	7645.92
493.383	7727.84
493.587	7482.08
493.79	7418.6
493.994	7115.5
494.197	7090.92
494.401	7154.41
494.605	6992.62
494.808	7127.78
495.012	6951.66
495.215	6929.13
495.419	7162.6
495.622	6636.27
495.825	6615.79
496.029	6695.66
496.232	6777.58
496.436	6769.39
496.639	6523.63
496.843	6509.3
497.046	6488.82
497.249	6851.31
497.453	6701.81
497.656	6458.1
497.859	6617.84
498.063	6675.18
498.266	6828.78
498.469	6554.35
498.673	6695.66
498.876	6521.59
499.079	6591.22
499.282	6822.64
499.485	7060.2
499.689	6748.91
499.892	7060.2
500.095	6742.77
500.298	7000.81
500.501	6834.93
500.705	6933.23
500.908	7121.64
501.111	7105.26
501.314	7385.83
501.517	7318.25
501.72	7359.21
501.923	7500.51
502.126	7518.95
502.329	7635.68
502.532	7736.03
502.735	7723.74
502.938	8020.7
503.141	8088.28
503.344	8116.95
503.547	8123.1
503.75	8348.37
503.953	8354.52
504.156	8557.27
504.359	8553.17
504.562	8657.62
504.765	8866.51
504.968	8874.7
505.17	9073.35
505.373	9153.23
505.576	9571.01
505.779	9548.48
505.982	9634.5
506.185	9857.73
506.387	9951.93
506.59	9779.9
506.793	10388.15
506.996	10566.32
507.198	10838.7
507.401	10812.08
507.604	11401.9
507.807	11401.9
508.009	11473.57
508.212	11680.42
508.415	11936.42
508.617	12417.69
508.82	12583.57
509.022	12399.26
509.225	13032.08
509.428	13374.09
509.63	13689.48
509.833	13507.21
510.035	14346.87
510.238	14412.41
510.44	14719.6
510.643	15147.63
510.845	15612.52
511.048	15383.15
511.25	15876.71
511.453	16259.68
511.655	17136.21
511.858	17332.81
512.06	17560.14
512.262	17744.45
512.465	18197.06
512.667	18731.58
512.87	18803.25
513.072	19249.71
513.274	20083.23
513.477	20240.93
513.679	20795.93
513.881	21391.89
514.084	21690.89
514.286	22127.11
514.488	22673.92
514.69	23290.35
514.893	23904.74
515.095	24228.32
515.297	24476.13
515.499	25291.22
515.701	26233.29
515.904	26520
516.106	26868.16
516.308	27326.9
516.51	27953.58
516.712	28053.93
516.914	29082.01
517.116	29606.29
517.318	29995.4
517.52	30593.41
517.722	30912.89
517.925	31746.42
518.127	32282.98
518.329	32995.68
518.531	33237.34
518.733	34070.86
518.935	34693.44
519.136	35029.31
519.338	35838.26
519.54	35983.66
519.742	36921.63
519.944	37028.13
520.146	38129.94
520.348	38109.46
520.55	38721.8
520.752	39172.35
520.954	40126.71
521.155	39911.67
521.357	40702.18
521.559	41511.13
521.761	42311.89
521.963	42123.47
522.164	42832.07
522.366	42997.96
522.568	43391.17
522.77	43169.99
522.971	44249.27
523.173	44015.8
523.375	44470.45
523.576	44644.52
523.778	44613.8
523.98	45658.27
524.181	45840.54
524.383	45396.13
524.584	45955.22
524.786	45512.86
524.988	45635.74
525.189	46289.04
525.391	46311.57
525.592	46643.34
525.794	46809.23
525.995	46575.76
526.197	46327.95
526.398	46237.84
526.6	46555.28
526.801	46534.8
527.003	46387.35
527.204	46043.29
527.406	46284.95
527.607	45637.79
527.808	45910.17
528.01	44699.82
528.211	45263.01
528.412	45637.79
528.614	44585.13
528.815	44490.93
529.016	44501.17
529.218	43622.59
529.419	43733.18
529.62	42979.53
529.822	42688.71
530.023	42479.82
530.224	42213.59
530.425	41375.97
530.626	40796.39
530.828	40464.62
531.029	40943.84
531.23	40225.01
531.431	39497.98
531.632	39303.42
531.833	38869.25
532.035	38398.22
532.236	37943.57
532.437	37703.96
532.638	37067.04
532.839	36669.73
533.04	36198.7
533.241	35518.78
533.442	35881.27
533.643	34888
533.844	34392.39
534.045	34025.81
534.246	33462.61
534.447	33110.36
534.648	32663.91
534.849	32356.71
535.05	31601.01
535.251	31334.78
535.451	30921.09
535.652	30710.14
535.853	30175.62
536.054	29864.33
536.255	29243.8
536.456	28809.63
536.657	28600.74
536.857	27972.01
537.058	27957.67
537.259	27697.58
537.46	27095.48
537.66	26468.8
537.861	26372.55
538.062	26145.22
538.263	26024.39
538.463	25078.23
538.664	25207.25
538.865	24768.99
539.065	24646.11
539.266	23816.68
539.466	23980.52
539.667	23486.96
539.868	23728.62
540.068	23325.17
540.269	22903.29
540.469	22526.46
540.67	22323.71
540.87	22159.88
541.071	21813.77
541.271	21182.99
541.472	21324.3
541.672	20810.26
541.873	20580.89
542.073	20464.16
542.274	20269.6
542.474	19874.34
542.675	19659.31
542.875	19778.09
543.075	19141.17
543.276	19020.34
543.476	18891.32
543.676	18381.37
543.877	18641.46
544.077	18403.9
544.277	18367.04
544.478	17855.04
544.678	17975.88
544.878	17455.69
545.078	17347.15
545.279	17103.44
545.479	16888.4
545.679	16757.33
545.879	16525.91
546.079	16368.22
546.28	16312.92
546.48	15829.6
546.68	15850.08
546.88	15463.02
547.08	15561.32
547.28	15233.64
547.48	14822
547.68	14791.28
547.88	14637.69
548.081	14590.58
548.281	14279.29
548.481	14238.33
548.681	14150.27
548.881	14066.3
549.081	13664.9
549.28	13441.67
549.48	13410.95
549.68	13148.81
549.88	13003.41
550.08	12636.82
550.28	12495.51
550.48	12321.43
550.68	12194.46
550.88	12130.97
551.08	11817.63
551.279	12016.29
551.479	11750.05
551.679	11276.97
551.879	11301.54
552.079	11211.43
552.278	10894
552.478	10947.25
552.678	10707.63
552.878	10590.9
553.077	10248.89
553.277	10130.11
553.477	10064.57
553.676	9839.3
553.876	9747.14
554.076	9538.24
554.275	9366.21
554.475	8995.53
554.674	9296.58
554.874	9020.11
555.074	8880.85
555.273	8708.82
555.473	8600.27
555.672	8594.13
555.872	8274.65
556.071	8250.07
556.271	8211.16
556.47	7987.93
556.67	7500.51
556.869	7727.84
557.068	7543.52
557.268	7299.81
557.467	7191.27
557.667	7303.91
557.866	7224.04
558.065	7047.91
558.265	6691.57
558.464	6509.3
558.663	6722.29
558.863	6447.86
559.062	6546.16
559.261	6097.66
559.461	6396.66
559.66	6114.04
559.859	5899
560.058	5823.23
560.258	5823.23
560.457	5749.5
560.656	5573.38
560.855	5585.66
561.054	5583.62
561.253	5405.44
561.453	5262.09
561.652	5282.56
561.851	5178.12
562.05	5055.24
562.249	4950.79
562.448	4989.71
562.647	4932.36
562.846	4653.84
563.045	4666.13
563.244	4584.21
563.443	4680.46
563.642	4406.03
563.841	4434.71
564.04	4379.41
564.239	4360.98
564.438	4311.83
564.637	3996.44
564.836	4043.54
565.035	3818.27
565.234	4055.83
565.432	3842.84
565.631	3853.08
565.83	3726.11
566.029	3681.05
566.228	3791.64
566.427	3607.33
566.625	3351.33
566.824	3595.04
567.023	3367.71
567.222	3310.37
567.42	3210.02
567.619	3326.75
567.818	3285.8
568.016	3334.95
568.215	3261.22
568.414	3261.22
568.612	3144.49
568.811	3210.02
569.01	2988.84
569.208	2925.35
569.407	2947.88
569.605	2841.39
569.804	2884.39
570.002	2847.53
570.201	2794.28
570.4	2786.09
570.598	2585.39
570.797	2667.31
570.995	2548.53
571.193	2609.97
571.392	2548.53
571.59	2407.22
571.789	2474.8
571.987	2503.47
572.186	2497.33
572.384	2306.87
572.582	2349.87
572.781	2390.83
572.979	2134.84
573.177	2251.57
573.376	2161.46
573.574	2186.04
573.772	2036.53
573.971	2169.65
574.169	2044.73
574.367	2087.73
574.565	1993.53
574.763	1962.81
574.962	1971
575.16	1751.87
575.358	1788.73
575.556	1917.75
575.754	1798.97
575.952	1768.25
576.151	1897.27
576.349	1780.54
576.547	1551.17
576.745	1753.91
576.943	1676.09
577.141	1532.73
577.339	1514.3
577.537	1608.51
577.735	1608.51
577.933	1495.87
578.131	1418.05
578.329	1575.74
578.527	1454.91
578.725	1565.5
578.923	1315.65
579.121	1334.08
579.319	1256.26
579.516	1258.31
579.714	1524.54
579.912	1313.6
580.11	1221.44
580.308	1268.55
580.506	1143.62
580.704	1106.76
580.901	1067.85
581.099	1225.54
581.297	1135.43
581.495	1162.05
581.692	1112.9
581.89	1225.54
582.088	1082.18
582.285	998.21
582.483	1053.51
582.681	1037.13
582.878	1047.37
583.076	973.64
583.274	1059.65
583.471	1110.85
583.669	961.35
583.866	863.05
584.064	897.86
584.262	789.32
584.459	897.86
584.657	893.77
584.854	895.82
585.052	992.07
585.249	822.09
585.447	877.38
585.644	754.51
585.841	879.43
586.039	854.86
586.236	916.3
586.434	774.99
586.631	674.64
586.828	830.28
587.026	752.46
587.223	656.2
587.42	731.98
587.618	766.79
587.815	811.85
588.012	803.66
588.21	555.85
588.407	691.02
588.604	713.55
588.801	656.2
588.999	676.68
589.196	680.78
589.393	633.68
589.59	652.11
589.787	658.25
589.984	623.44
590.182	688.97
590.379	570.19
590.576	605
590.773	609.1
590.97	631.63
591.167	711.5
591.364	752.46
591.561	637.77
591.758	676.68
591.955	715.59
592.152	543.57
592.349	529.23
592.546	568.14
592.743	590.67
592.94	613.2
593.137	674.64
593.334	729.93
593.531	615.24
593.727	658.25
593.924	652.11
594.121	625.48
594.318	588.62
594.515	693.07
594.712	758.6
594.908	711.5
595.105	537.42
595.302	750.41
595.499	713.55
595.696	777.03
595.892	639.82
596.089	709.45
596.286	635.72
596.482	705.35
596.679	731.98
596.876	727.88
597.072	779.08
597.269	807.75
597.466	805.71
597.662	779.08
597.859	817.99
598.055	779.08
598.252	914.25
598.448	897.86
598.645	942.92
598.841	1014.6
599.038	1164.1
599.234	1049.41
599.431	1088.32
599.627	1119.04
599.824	1203.01
600.02	1254.21
600.217	1248.07
600.413	1262.4
600.609	1329.99
600.806	1663.8
601.002	1526.59
601.198	1483.58
601.395	1620.8
601.591	1594.17
601.787	1745.72
601.984	1891.13
602.18	1923.9
602.376	1837.88
602.572	2014.01
602.769	2126.64
602.965	2118.45
603.161	2222.9
603.357	2169.65
603.553	2343.73
603.75	2401.07
603.946	2460.46
604.142	2573.1
604.338	2818.86
604.534	2679.6
604.73	2880.3
604.926	2919.21
605.122	3035.94
605.318	3179.3
605.514	3312.42
605.71	3207.97
605.906	3445.54
606.102	3427.11
606.298	3762.97
606.494	3746.59
606.69	3902.23
606.886	4041.5
607.082	3996.44
607.278	4113.17
607.474	4317.97
607.67	4457.23
607.866	4248.34
608.062	4823.82
608.257	4741.9
608.453	4793.1
608.649	5135.11
608.845	5143.3
609.041	5393.16
609.236	5561.09
609.432	5815.04
609.628	5794.56
609.824	5995.26
610.019	6050.55
610.215	6130.42
610.411	6505.2
610.606	6537.97
610.802	6736.62
610.998	7088.87
611.193	7246.57
611.389	7176.94
611.584	7609.06
611.78	7670.5
611.976	7785.18
612.171	8178.39
612.367	8299.22
612.562	8436.44
612.758	8473.3
612.953	8747.73
613.149	9075.4
613.344	9378.5
613.539	9724.61
613.735	9941.69
613.93	10226.36
614.126	10287.8
614.321	10582.71
614.517	11080.36
614.712	11313.83
614.907	11442.85
615.103	11905.7
615.298	11989.66
615.493	12511.89
615.688	12501.65
615.884	13068.94
616.079	13064.85
616.274	13773.44
616.47	13795.97
616.665	14432.89
616.86	14615.16
617.055	14948.98
617.25	15420.01
617.445	15841.89
617.641	16069.22
617.836	16298.59
618.031	16702.04
618.226	17541.71
618.421	17842.76
618.616	18145.86
618.811	18178.62
619.006	19429.93
619.201	19149.36
619.396	20216.35
619.591	20181.54
619.786	20646.43
619.981	21053.97
620.176	21666.31
620.371	21916.17
620.566	22569.47
620.761	22841.85
620.956	23532.01
621.151	23736.81
621.346	24441.31
621.541	24322.53
621.735	25952.71
621.93	25428.43
622.125	26075.59
622.32	26225.09
622.515	26816.96
622.709	27580.85
622.904	28189.1
623.099	28326.31
623.294	28807.58
623.488	29225.37
623.683	30163.34
623.878	30194.06
624.072	30841.21
624.267	31215.99
624.462	31820.14
624.656	32483.69
624.851	32950.62
625.046	33096.03
625.24	33755.47
625.435	34101.58
625.629	34427.21
625.824	35107.13
626.018	35469.62
626.213	35518.78
626.407	36286.76
626.602	36262.19
626.796	37054.75
626.991	37380.38
627.185	37613.85
627.38	37828.88
627.574	38514.95
627.768	38154.51
627.963	38461.71
628.157	38166.8
628.352	38770.95
628.546	38750.47
628.74	39188.74
628.935	39065.86
629.129	38924.55
629.323	38570.25
629.517	38727.94
629.712	38320.4
629.906	37935.38
630.1	37693.72
630.294	37695.77
630.489	36884.77
630.683	36813.09
630.877	36051.25
631.071	35447.1
631.265	34609.48
631.459	34054.48
631.653	33517.91
631.848	33020.25
632.042	31965.55
632.236	31555.96
632.43	30261.64
632.624	29999.5
632.818	28768.67
633.012	27832.75
633.206	27187.64
633.4	26755.52
633.594	25309.65
633.788	24797.66
633.982	23742.96
634.176	22696.44
634.369	21914.12
634.563	21459.47
634.757	20656.67
634.951	20007.46
635.145	19040.82
635.339	18442.81
635.533	17437.26
635.726	17037.91
635.92	15946.34
636.114	15567.46
636.308	14852.72
636.501	14359.16
636.695	13740.68
636.889	12962.45
637.083	12563.09
637.276	12001.95
637.47	11250.35
637.664	11051.69
637.857	10830.51
638.051	10230.46
638.244	9822.91
638.438	9474.76
638.632	9175.75
638.825	8641.23
639.019	8454.87
639.212	8043.23
639.406	7707.36
639.599	7430.88
639.793	7219.94
639.986	6945.52
640.18	6732.53
640.373	6353.65
640.567	6140.66
640.76	5946.11
640.954	5585.66
641.147	5425.92
641.34	5069.58
641.534	5034.76
641.727	4809.48
641.92	4717.33
642.114	4471.57
642.307	4301.59
642.5	4201.24
642.694	4039.45
642.887	3889.95
643.08	3801.88
643.273	3599.13
643.467	3371.81
643.66	3099.43
643.853	3128.1
644.046	3044.13
644.239	2890.54
644.432	2685.74
644.626	2569.01
644.819	2571.05
645.012	2511.66
645.205	2368.31
645.398	2401.07
645.591	2222.9
645.784	2052.92
645.977	2001.72
646.17	2018.1
646.363	1884.98
646.556	1882.94
646.749	1618.75
646.942	1725.24
647.135	1741.63
647.328	1508.16
647.521	1585.98
647.714	1446.72
647.907	1483.58
648.099	1295.17
648.292	1342.27
648.485	1182.53
648.678	1186.63
648.871	1190.72
649.064	1127.24
649.256	1084.23
649.449	1028.93
649.642	938.82
649.835	1055.56
650.027	922.44
650.22	1110.85
650.413	912.2
650.605	940.87
650.798	731.98
650.991	805.71
651.183	729.93
651.376	731.98
651.568	750.41
651.761	727.88
651.954	666.44
652.146	637.77
652.339	715.59
652.531	672.59
652.724	455.5
652.916	504.65
653.109	385.87
653.301	605
653.494	527.18
653.686	506.7
653.879	510.8
654.071	473.93
654.263	498.51
654.456	359.25
654.648	502.61
654.84	484.17
655.033	430.93
655.225	516.94
655.417	349.01
655.61	480.08
655.802	422.73
655.994	480.08
656.186	242.51
656.379	478.03
656.571	377.68
656.763	387.92
656.955	334.67
657.148	357.2
657.34	375.63
657.532	303.95
657.724	232.27
657.916	293.71
658.108	381.78
658.3	318.29
658.492	299.86
658.684	207.7
658.876	310.1
659.068	232.27
659.26	191.31
659.452	209.75
659.644	342.86
659.836	357.2
660.028	211.79
660.22	189.27
660.412	176.98
660.604	93.01
660.796	207.7
660.988	303.95
661.18	244.56
661.372	279.38
661.563	250.71
661.755	209.75
661.947	181.07
662.139	127.83
662.331	170.83
662.522	195.41
662.714	162.64
662.906	164.69
663.097	203.6
663.289	78.68
663.481	70.48
663.673	119.64
663.864	187.22
664.056	162.64
664.247	105.3
664.439	349.01
664.631	193.36
664.822	283.47
665.014	129.88
665.205	166.74
665.397	160.59
665.588	228.18
665.78	144.21
665.971	236.37
666.163	168.79
666.354	160.59
666.546	191.31
666.737	90.96
666.929	144.21
667.12	148.31
667.311	144.21
667.503	33.62
667.694	191.31
667.885	142.16
668.077	174.93
668.268	70.48
668.459	111.44
668.651	121.68
668.842	181.07
669.033	99.16
669.224	47.96
669.416	310.1
669.607	129.88
669.798	68.44
669.989	209.75
670.18	142.16
670.371	203.6
670.563	95.06
670.754	258.9
670.945	250.71
671.136	222.03
671.327	21.33
671.518	279.38
671.709	252.75
671.9	265.04
672.091	205.65
672.282	136.02
672.473	174.93
672.664	101.2
672.855	176.98
673.046	189.27
673.237	234.32
673.428	154.45
673.619	250.71
673.809	125.78
674	244.56
674.191	219.99
674.382	93.01
674.573	131.92
674.764	119.64
674.954	219.99
675.145	138.07
675.336	125.78
675.527	152.4
675.717	168.79
675.908	58.2
676.099	95.06
676.289	201.55
676.48	27.48
676.671	254.8
676.861	123.73
677.052	121.68
677.243	129.88
677.433	95.06
677.624	242.51
677.814	142.16
678.005	140.12
678.195	269.14
678.386	113.49
678.576	174.93
678.767	127.83
678.957	213.84
679.148	252.75
679.338	252.75
679.529	189.27
679.719	230.23
679.909	174.93
680.1	199.51
680.29	252.75
680.481	93.01
680.671	260.95
680.861	279.38
681.052	295.76
681.242	234.32
681.432	281.43
681.622	211.79
681.813	162.64
682.003	170.83
682.193	117.59
682.383	224.08
682.573	207.7
682.764	136.02
682.954	207.7
683.144	420.69
683.334	254.8
683.524	232.27
683.714	250.71
683.904	209.75
684.094	248.66
684.284	199.51
684.474	330.58
684.664	342.86
684.854	246.61
685.044	318.29
685.234	201.55
685.424	193.36
685.614	232.27
685.804	445.26
685.994	230.23
686.184	287.57
686.374	277.33
686.564	271.19
686.753	228.18
686.943	179.03
687.133	285.52
687.323	250.71
687.513	236.37
687.702	322.38
687.892	217.94
688.082	283.47
688.272	318.29
688.461	297.81
688.651	461.65
688.841	303.95
689.03	244.56
689.22	232.27
689.41	275.28
689.599	379.73
689.789	222.03
689.979	316.24
690.168	285.52
690.358	306
690.547	328.53
690.737	246.61
690.926	303.95
691.116	322.38
691.305	357.2
691.495	269.14
691.684	189.27
691.874	236.37
692.063	269.14
692.252	357.2
692.442	316.24
692.631	185.17
692.82	242.51
693.01	230.23
693.199	250.71
693.388	252.75
693.578	207.7
693.767	189.27
693.956	310.1
694.146	242.51
694.335	260.95
694.524	244.56
694.713	312.14
694.902	228.18
695.092	215.89
695.281	213.84
695.47	170.83
695.659	193.36
695.848	248.66
696.037	215.89
696.226	349.01
696.415	248.66
696.604	252.75
696.793	295.76
696.982	228.18
697.171	342.86
697.36	125.78
697.549	201.55
697.738	115.54
697.927	256.85
698.116	215.89
698.305	281.43
698.494	262.99
698.683	203.6
698.872	332.62
699.061	256.85
699.25	199.51
699.438	168.79
699.627	170.83
699.816	289.62
700.005	125.78
700.193	111.44
700.382	314.19
700.571	277.33
700.76	273.23
700.948	322.38
701.137	342.86
701.326	318.29
701.514	207.7
701.703	301.9
701.892	240.47
702.08	355.15
702.269	252.75
702.457	119.64
702.646	228.18
702.834	230.23
703.023	295.76
703.212	258.9
703.4	242.51
703.589	211.79
703.777	179.03
703.965	144.21
704.154	136.02
704.342	146.26
704.531	113.49
704.719	217.94
704.907	232.27
705.096	133.97
705.284	115.54
705.472	207.7
705.661	324.43
705.849	314.19
706.037	213.84
706.226	252.75
706.414	238.42
706.602	158.55
706.79	254.8
706.979	262.99
707.167	234.32
707.355	56.15
707.543	213.84
707.731	228.18
707.919	209.75
708.107	154.45
708.296	129.88
708.484	154.45
708.672	269.14
708.86	248.66
709.048	240.47
709.236	187.22
709.424	211.79
709.612	291.66
709.8	90.96
709.988	232.27
710.176	232.27
710.364	299.86
710.551	179.03
710.739	258.9
710.927	154.45
711.115	234.32
711.303	279.38
711.491	271.19
711.679	224.08
711.866	279.38
712.054	191.31
712.242	252.75
712.43	285.52
712.617	295.76
712.805	262.99
712.993	308.05
713.181	129.88
713.368	338.77
713.556	181.07
713.744	179.03
713.931	381.78
714.119	306
714.306	199.51
714.494	275.28
714.682	193.36
714.869	88.92
715.057	297.81
715.244	93.01
715.432	316.24
715.619	152.4
715.807	277.33
715.994	228.18
716.182	275.28
716.369	250.71
716.556	316.24
716.744	95.06
716.931	154.45
717.119	295.76
717.306	179.03
717.493	299.86
717.681	170.83
717.868	162.64
718.055	301.9
718.242	219.99
718.43	273.23
718.617	328.53
718.804	181.07
718.991	330.58
719.179	289.62
719.366	287.57
719.553	267.09
719.74	285.52
719.927	195.41
720.114	273.23
720.301	152.4
720.488	146.26
720.676	224.08
720.863	361.3
721.05	371.54
721.237	219.99
721.424	303.95
721.611	209.75
721.798	213.84
721.985	209.75
722.172	289.62
722.358	232.27
722.545	322.38
722.732	299.86
722.919	373.58
723.106	312.14
723.293	207.7
723.48	187.22
723.667	193.36
723.853	420.69
724.04	244.56
724.227	381.78
724.414	246.61
724.6	316.24
724.787	346.96
724.974	400.21
725.161	250.71
725.347	301.9
725.534	281.43
725.72	346.96
725.907	365.39
726.094	383.82
726.28	275.28
726.467	224.08
726.653	291.66
726.84	361.3
727.027	424.78
727.213	193.36
727.4	308.05
727.586	308.05
727.773	295.76
727.959	252.75
728.145	295.76
728.332	334.67
728.518	312.14
728.705	273.23
728.891	224.08
729.077	230.23
729.264	156.5
729.45	226.13
729.636	314.19
729.823	320.34
730.009	344.91
730.195	269.14
730.382	281.43
730.568	215.89
730.754	314.19
730.94	316.24
731.126	265.04
731.313	375.63
731.499	318.29
731.685	244.56
731.871	363.34
732.057	408.4
732.243	273.23
732.429	404.3
732.615	351.06
732.801	281.43
732.987	250.71
733.173	289.62
733.359	273.23
733.545	367.44
733.731	316.24
733.917	441.17
734.103	293.71
734.289	381.78
734.475	258.9
734.661	494.41
734.847	371.54
735.033	289.62
735.219	369.49
735.404	349.01
735.59	281.43
735.776	271.19
735.962	330.58
736.148	396.11
736.333	320.34
736.519	381.78
736.705	242.51
736.89	424.78
737.076	197.46
737.262	254.8
737.447	242.51
737.633	273.23
737.819	322.38
738.004	244.56
738.19	299.86
738.375	326.48
738.561	324.43
738.747	330.58
738.932	250.71
739.118	394.06
739.303	381.78
739.489	340.82
739.674	185.17
739.859	269.14
740.045	357.2
740.23	330.58
740.416	213.84
740.601	256.85
740.786	346.96
740.972	260.95
741.157	228.18
741.342	191.31
741.528	144.21
741.713	371.54
741.898	248.66
742.084	293.71
742.269	332.62
742.454	285.52
742.639	465.74
742.824	367.44
743.01	332.62
743.195	475.98
743.38	248.66
743.565	242.51
743.75	236.37
743.935	346.96
744.12	359.25
744.305	246.61
744.49	185.17
744.675	299.86
744.86	256.85
745.045	340.82
745.23	310.1
745.415	316.24
745.6	418.64
745.785	269.14
745.97	340.82
746.155	351.06
746.34	322.38
746.525	303.95
746.71	389.97
746.895	189.27
747.079	195.41
747.264	285.52
747.449	240.47
747.634	326.48
747.819	289.62
748.003	246.61
748.188	248.66
748.373	308.05
748.557	273.23
748.742	295.76
748.927	156.5
749.111	193.36
749.296	193.36
749.481	299.86
749.665	211.79
749.85	168.79
750.034	236.37
750.219	246.61
750.404	224.08
750.588	293.71
750.773	154.45
750.957	271.19
751.141	189.27
751.326	301.9
751.51	191.31
751.695	250.71
751.879	142.16
752.064	342.86
752.248	183.12
752.432	316.24
752.617	299.86
752.801	256.85
752.985	203.6
753.17	344.91
753.354	238.42
753.538	267.09
753.722	189.27
753.907	111.44
754.091	78.68
754.275	240.47
754.459	123.73
754.643	209.75
754.828	205.65
755.012	301.9
755.196	119.64
755.38	230.23
755.564	189.27
755.748	185.17
755.932	336.72
756.116	213.84
756.3	133.97
756.484	183.12
756.668	281.43
756.852	70.48
757.036	176.98
757.22	209.75
757.404	197.46
757.588	88.92
757.772	113.49
757.956	129.88
758.14	269.14
758.323	88.92
758.507	197.46
758.691	74.58
758.875	269.14
759.059	299.86
759.242	84.82
759.426	97.11
759.61	160.59
759.794	150.36
759.977	273.23
760.161	336.72
760.345	181.07
760.528	234.32
760.712	228.18
760.895	226.13
761.079	129.88
761.263	56.15
761.446	142.16
761.63	107.35
761.813	230.23
761.997	133.97
762.18	154.45
762.364	203.6
762.547	95.06
762.731	174.93
762.914	103.25
763.098	84.82
763.281	31.57
763.464	179.03
763.648	172.88
763.831	88.92
764.015	70.48
764.198	140.12
764.381	64.34
764.564	219.99
764.748	164.69
764.931	234.32
765.114	54.1
765.297	217.94
765.481	54.1
765.664	70.48
765.847	70.48
766.03	199.51
766.213	86.87
766.397	113.49
766.58	19.29
766.763	146.26
766.946	31.57
767.129	131.92
767.312	43.86
767.495	95.06
767.678	64.34
767.861	107.35
768.044	140.12
768.227	45.91
768.41	99.16
768.593	109.4
768.776	129.88
768.959	70.48
769.142	154.45
769.324	107.35
769.507	115.54
769.69	39.76
769.873	68.44
770.056	299.86
770.239	64.34
770.421	209.75
770.604	142.16
770.787	62.29
770.97	166.74
771.152	72.53
771.335	107.35
771.518	29.52
771.7	138.07
771.883	205.65
772.066	84.82
772.248	127.83
772.431	166.74
772.613	101.2
772.796	62.29
772.978	179.03
773.161	166.74
773.343	31.57
773.526	15.19
773.708	-81.07
773.891	-25.77
774.073	86.87
774.256	78.68
774.438	207.7
774.621	68.44
774.803	156.5
774.985	13.14
775.168	113.49
775.35	76.63
775.532	50
775.715	90.96
775.897	129.88
776.079	9.05
776.261	123.73
776.444	99.16
776.626	80.72
776.808	93.01
776.99	-33.96
777.173	47.96
777.355	117.59
777.537	52.05
777.719	80.72
777.901	74.58
778.083	-29.87
778.265	-33.96
778.447	103.25
778.629	66.39
778.811	78.68
778.993	93.01
779.175	154.45
779.357	93.01
779.539	27.48
779.721	17.24
779.903	41.81
780.085	25.43
780.267	74.58
780.449	27.48
780.631	172.88
780.812	183.12
780.994	-46.25
781.176	162.64
781.358	23.38
781.54	66.39
781.721	140.12
781.903	127.83
782.085	58.2
782.267	138.07
782.448	-46.25
782.63	58.2
782.812	58.2
782.993	146.26
783.175	95.06
783.357	-19.63
783.538	136.02
783.72	13.14
783.901	25.43
784.083	115.54
784.264	219.99
784.446	-13.48
784.627	-5.29
784.809	52.05
784.99	82.77
785.172	90.96
785.353	9.05
785.535	37.72
785.716	-62.63
785.897	-5.29
786.079	62.29
786.26	109.4
786.441	99.16
786.623	-19.63
786.804	2.9
786.985	64.34
787.167	146.26
787.348	-7.34
787.529	41.81
787.71	172.88
787.891	45.91
788.073	-13.48
788.254	11.09
788.435	72.53
788.616	15.19
788.797	-46.25
788.978	58.2
789.159	29.52
789.34	21.33
789.522	-42.15
789.703	-3.24
789.884	19.29
790.065	70.48
790.246	224.08
790.427	25.43
790.607	119.64
790.788	86.87
790.969	13.14
791.15	50
791.331	15.19
791.512	-44.2
791.693	-72.87
791.874	-13.48
792.054	95.06
792.235	140.12
792.416	-52.39
792.597	-64.68
792.778	50
792.958	62.29
793.139	97.11
793.32	86.87
793.5	-1.19
793.681	111.44
793.862	68.44
794.042	15.19
794.223	-74.92
794.404	33.62
794.584	-64.68
794.765	136.02
794.945	13.14
795.126	52.05
795.306	109.4
795.487	4.95
795.667	-38.06
795.848	-66.73
796.028	-15.53
796.209	66.39
796.389	4.95
796.57	35.67
796.75	33.62
796.93	86.87
797.111	-17.58
797.291	-15.53
797.471	62.29
797.652	52.05
797.832	0.85
798.012	64.34
798.192	-42.15
798.373	-31.91
798.553	-25.77
798.733	41.81
798.913	19.29
799.093	0.85
799.274	-9.39
799.454	129.88
799.634	109.4
799.814	37.72
799.994	115.54
800.174	-40.11
800.354	-1.19
800.534	-142.5
800.714	74.58
800.894	-50.35
801.074	-40.11
801.254	-46.25
801.434	47.96
801.614	29.52
801.794	-21.67
801.974	1893.18
802.154	-50.35
802.334	72.53
802.514	-44.2
802.693	58.2
802.873	-7.34
803.053	101.2
803.233	68.44
803.413	39.76
803.592	-117.93
803.772	15.19
803.952	35.67
804.131	-60.59
804.311	72.53
804.491	140.12
804.67	-44.2
804.85	11.09
805.03	7
805.209	101.2
805.389	19.29
805.568	-13.48
805.748	21.33
805.928	43.86
806.107	37.72
806.287	29.52
806.466	52.05
806.646	-25.77
806.825	-23.72
807.004	15.19
807.184	47.96
807.363	52.05
807.543	11.09
807.722	-27.82
807.901	62.29
808.081	25.43
808.26	-70.83
808.439	0.85
808.619	39.76
808.798	2.9
808.977	37.72
809.156	15.19
809.336	-7.34
809.515	-1.19
809.694	-83.11
809.873	-31.91
810.052	76.63
810.231	86.87
810.411	50
810.59	136.02
810.769	2.9
810.948	-21.67
811.127	-89.26
811.306	-113.83
811.485	-3.24
811.664	154.45
811.843	33.62
812.022	37.72
812.201	-17.58
812.38	17.24
812.559	-27.82
812.737	9.05
812.916	-7.34
813.095	23.38
813.274	17.24
813.453	11.09
813.632	37.72
813.811	78.68
813.989	-46.25
814.168	78.68
814.347	-91.31
814.526	-25.77
814.704	78.68
814.883	105.3
815.062	-50.35
815.24	113.49
815.419	-54.44
815.598	54.1
815.776	-68.78
815.955	7
816.133	-109.74
816.312	-23.72
816.49	-33.96
816.669	78.68
816.847	-25.77
817.026	21.33
817.204	19.29
817.383	-46.25
817.561	-13.48
817.74	68.44
817.918	35.67
818.097	-58.54
818.275	23.38
818.453	117.59
818.632	31.57
818.81	-48.3
818.988	19.29
819.167	-48.3
819.345	-25.77
819.523	-40.11
819.701	95.06
819.879	-1.19
820.058	88.92
820.236	35.67
820.414	-44.2
820.592	60.24
820.77	13.14
820.948	-103.59
821.127	-17.58
821.305	-40.11
821.483	-103.59
821.661	-27.82
821.839	66.39
822.017	-44.2
822.195	-50.35
822.373	136.02
822.551	-15.53
822.729	113.49
822.907	27.48
823.085	-1.19
823.262	-15.53
823.44	-95.4
823.618	-60.59
823.796	-54.44
823.974	-93.35
824.152	-66.73
824.329	-29.87
824.507	64.34
824.685	43.86
824.863	-109.74
825.04	13.14
825.218	4.95
825.396	23.38
825.574	-5.29
825.751	-11.43
825.929	-7.34
826.107	-40.11
826.284	-17.58
826.462	-13.48
826.639	-38.06
826.817	-105.64
826.994	15.19
827.172	-13.48
827.349	113.49
827.527	39.76
827.704	-7.34
827.882	50
828.059	11.09
828.237	-17.58
828.414	86.87
828.591	-56.49
828.769	-33.96
828.946	-79.02
829.124	-44.2
829.301	50
829.478	-5.29
829.655	31.57
829.833	-1.19
830.01	-173.22
830.187	43.86
830.364	15.19
830.542	37.72
830.719	105.3
830.896	78.68
831.073	-27.82
831.25	47.96
831.427	82.77
831.604	25.43
831.782	19.29
831.959	-17.58
832.136	-21.67
832.313	37.72
832.49	0.85
832.667	17.24
832.844	-46.25
833.021	35.67
833.198	-15.53
833.374	-7.34
833.551	-27.82
833.728	27.48
833.905	54.1
834.082	-19.63
834.259	25.43
834.436	45.91
834.612	-132.26
834.789	43.86
834.966	0.85
835.143	-5.29
835.319	-36.01
835.496	41.81
835.673	21.33
835.85	37.72
836.026	115.54
836.203	-3.24
836.38	-54.44
836.556	-46.25
836.733	-3.24
836.909	80.72
837.086	-54.44
837.262	-27.82
837.439	-72.87
837.616	-42.15
837.792	-13.48
837.968	-17.58
838.145	-126.12
838.321	47.96
838.498	7
838.674	35.67
838.851	37.72
839.027	-42.15
839.203	-7.34
839.38	2.9
839.556	-72.87
839.732	84.82
839.909	-25.77
840.085	23.38
840.261	-17.58
840.437	54.1
840.614	-64.68
840.79	80.72
840.966	9.05
841.142	29.52
841.318	-38.06
841.494	-40.11
841.671	80.72
841.847	-50.35
842.023	-46.25
842.199	105.3
842.375	58.2
842.551	-40.11
842.727	-40.11
842.903	127.83
843.079	-122.02
843.255	41.81
843.431	-31.91
843.607	64.34
843.783	-152.74
843.959	15.19
844.134	-38.06
844.31	88.92
844.486	-21.67
844.662	-74.92
844.838	68.44
845.013	-21.67
845.189	93.01
845.365	50
845.541	11.09
845.716	19.29
845.892	66.39
846.068	-66.73
846.244	-29.87
846.419	99.16
846.595	-115.88
846.77	-99.5
846.946	-23.72
847.122	-46.25
847.297	-74.92
847.473	7
847.648	-105.64
847.824	93.01
847.999	-72.87
848.175	-9.39
848.35	19.29
848.526	93.01
848.701	68.44
848.876	66.39
849.052	54.1
849.227	37.72
849.403	-23.72
849.578	-15.53
849.753	70.48
849.929	-5.29
850.104	-122.02
850.279	-13.48
850.454	-31.91
850.63	25.43
850.805	64.34
850.98	27.48
851.155	-62.63
851.33	11.09
851.505	-58.54
851.681	74.58
851.856	-68.78
852.031	84.82
852.206	-7.34
852.381	-169.13
852.556	-25.77
852.731	11.09
852.906	117.59
853.081	-21.67
853.256	39.76
853.431	54.1
853.606	-52.39
853.781	-42.15
853.956	-99.5
854.131	-5.29
854.305	-56.49
854.48	-44.2
854.655	-93.35
854.83	-9.39
855.005	-31.91
855.18	29.52
855.354	-19.63
855.529	-33.96
855.704	-3.24
855.879	50
856.053	-11.43
856.228	-3.24
856.403	-23.72
856.577	-48.3
856.752	-113.83
856.926	-23.72
857.101	105.3
857.276	-60.59
857.45	-42.15
857.625	45.91
857.799	97.11
857.974	-107.69
858.148	-148.65
858.323	-58.54
858.497	-58.54
858.672	-38.06
858.846	-38.06
859.02	31.57
859.195	-124.07
859.369	13.14
859.543	62.29
859.718	-68.78
859.892	-23.72
860.066	37.72
860.241	-11.43
860.415	-15.53
860.589	-27.82
860.763	2.9
860.938	7
861.112	-1.19
861.286	-109.74
861.46	39.76
861.634	23.38
861.808	43.86
861.982	-60.59
862.157	-179.37
862.331	-23.72
862.505	-152.74
862.679	-76.97
862.853	-76.97
863.027	-68.78
863.201	129.88
863.375	-42.15
863.549	-48.3
863.722	-23.72
863.896	27.48
864.07	-107.69
864.244	-23.72
864.418	21.33
864.592	0.85
864.766	-9.39
864.939	7
865.113	-46.25
865.287	50
865.461	-62.63
865.634	-19.63
865.808	-56.49
865.982	-58.54
866.156	-103.59
866.329	-48.3
866.503	-25.77
866.676	-38.06
866.85	23.38
867.024	-23.72
867.197	80.72
867.371	-5.29
867.544	72.53
867.718	-105.64
867.891	19.29
868.065	-189.61
868.238	-19.63
868.412	70.48
868.585	23.38
868.759	-44.2
868.932	-17.58
869.105	-36.01
869.279	17.24
869.452	-46.25
869.625	-9.39
869.799	-42.15
869.972	-95.4
870.145	-19.63
870.319	-48.3
870.492	-36.01
870.665	-91.31
870.838	-99.5
871.011	-113.83
871.185	-31.91
871.358	-13.48
871.531	9.05
871.704	-101.55
871.877	56.15
872.05	-109.74
872.223	-66.73
872.396	13.14
872.569	66.39
872.742	-142.5
872.915	33.62
873.088	-33.96
873.261	-21.67
873.434	35.67
873.607	-52.39
873.78	54.1
873.953	-93.35
874.126	19.29
874.299	-40.11
874.471	-15.53
874.644	-56.49
874.817	31.57
874.99	123.73
875.163	-13.48
875.335	-29.87
875.508	-40.11
875.681	-11.43
875.853	-72.87
876.026	39.76
876.199	125.78
876.371	23.38
876.544	-60.59
876.717	-25.77
876.889	-52.39
877.062	-33.96
877.234	-33.96
877.407	-91.31
877.579	17.24
877.752	-52.39
877.924	27.48
878.097	62.29
878.269	54.1
878.442	25.43
878.614	-3.24
878.786	-19.63
878.959	19.29
879.131	-7.34
879.303	-150.7
879.476	-1.19
879.648	60.24
879.82	25.43
879.993	-15.53
880.165	-29.87
880.337	-113.83
880.509	-46.25
880.681	-144.55
880.854	-58.54
881.026	90.96
881.198	23.38
881.37	-42.15
881.542	-17.58
881.714	-50.35
881.886	15.19
882.058	-50.35
882.23	-11.43
882.402	4.95
882.574	29.52
882.746	62.29
882.918	33.62
883.09	2.9
883.262	-64.68
883.434	-13.48
883.606	-85.16
883.778	-27.82
883.95	39.76
884.122	-81.07
884.293	35.67
884.465	41.81
884.637	52.05
884.809	-19.63
884.98	-33.96
885.152	2.9
885.324	19.29
885.496	-105.64
885.667	-42.15
885.839	-36.01
886.011	119.64
886.182	35.67
886.354	66.39
886.525	54.1
886.697	-83.11
886.869	-85.16
887.04	-42.15
887.212	105.3
887.383	72.53
887.555	2.9
887.726	-54.44
887.897	-72.87
888.069	-64.68
888.24	86.87
888.412	-70.83
888.583	-9.39
888.754	-48.3
888.926	-124.07
889.097	-50.35
889.268	-89.26
889.44	-33.96
889.611	-95.4
889.782	-97.45
889.953	-93.35
890.125	47.96
890.296	-99.5
890.467	-175.27
890.638	-70.83
890.809	-23.72
890.98	-42.15
891.151	2.9
891.323	19.29
891.494	-40.11
891.665	29.52
891.836	4.95
892.007	-62.63
892.178	19.29
892.349	25.43
892.52	-36.01
892.691	-64.68
892.862	-5.29
893.032	-95.4
893.203	-60.59
893.374	39.76
893.545	97.11
893.716	-115.88
893.887	29.52
894.057	-64.68
894.228	31.57
894.399	-19.63
894.57	11.09
894.74	47.96
894.911	-40.11
895.082	29.52
895.253	-122.02
895.423	31.57
895.594	-11.43
895.764	27.48
895.935	-109.74
896.106	11.09
896.276	-50.35
896.447	-27.82
896.617	-3.24
896.788	-79.02
896.958	-101.55
897.129	-31.91
897.299	-52.39
897.47	72.53
897.64	9.05
897.81	-79.02
897.981	54.1
898.151	-89.26
898.322	21.33
898.492	27.48
898.662	-101.55
898.832	-64.68
899.003	-46.25
899.173	27.48
899.343	-99.5
899.513	-40.11
