Data from USB4F104151__108__10-45-47-261.txt Node

Date: Wed Feb 26 10:45:47 EST 2025
User: louis
Spectrometer: USB4F10415
Trigger mode: 4
Integration Time (sec): 1.000000E-1
Scans to average: 1
Electric dark correction enabled: true
Nonlinearity correction enabled: false
Boxcar width: 0
XAxis mode: Wavelengths
Number of Pixels in Spectrum: 3648
>>>>>Begin Spectral Data<<<<<
178.204	-449.7
178.424	-449.7
178.644	-449.7
178.864	-459.94
179.084	-384.16
179.304	-21.67
179.524	-36.01
179.744	4.95
179.964	39.76
180.184	47.96
180.404	25.43
180.624	-60.59
180.844	-5.29
181.064	-111.78
181.283	97.11
181.503	-27.82
181.723	47.96
181.943	-93.35
182.163	144.21
182.383	2.9
182.602	-9.39
182.822	142.16
183.042	41.81
183.262	-113.83
183.482	-23.72
183.701	-5.29
183.921	13.14
184.141	-62.63
184.361	-5.29
184.58	21.33
184.8	17.24
185.02	-3.24
185.239	93.01
185.459	56.15
185.679	47.96
185.898	-89.26
186.118	29.52
186.338	56.15
186.557	80.72
186.777	0.85
186.997	-21.67
187.216	23.38
187.436	203.6
187.655	58.2
187.875	105.3
188.095	-15.53
188.314	166.74
188.534	103.25
188.753	13.14
188.973	142.16
189.192	142.16
189.412	47.96
189.631	11.09
189.851	64.34
190.07	78.68
190.29	-56.49
190.509	9.05
190.729	68.44
190.948	164.69
191.168	230.23
191.387	111.44
191.607	4.95
191.826	90.96
192.045	27.48
192.265	76.63
192.484	9.05
192.704	41.81
192.923	-66.73
193.142	191.31
193.362	66.39
193.581	33.62
193.8	64.34
194.02	58.2
194.239	43.86
194.458	72.53
194.678	-7.34
194.897	-83.11
195.116	4.95
195.335	23.38
195.555	58.2
195.774	25.43
195.993	97.11
196.212	47.96
196.432	9.05
196.651	19.29
196.87	-40.11
197.089	224.08
197.308	33.62
197.528	119.64
197.747	2.9
197.966	-1.19
198.185	181.07
198.404	-85.16
198.623	70.48
198.842	121.68
199.062	82.77
199.281	119.64
199.5	-11.43
199.719	35.67
199.938	47.96
200.157	136.02
200.376	125.78
200.595	168.79
200.814	76.63
201.033	27.48
201.252	107.35
201.471	-25.77
201.69	39.76
201.909	74.58
202.128	80.72
202.347	52.05
202.566	-7.34
202.785	45.91
203.004	78.68
203.223	219.99
203.442	60.24
203.661	-19.63
203.879	58.2
204.098	105.3
204.317	-38.06
204.536	68.44
204.755	95.06
204.974	45.91
205.193	68.44
205.411	191.31
205.63	127.83
205.849	66.39
206.068	47.96
206.287	-19.63
206.505	90.96
206.724	-42.15
206.943	-36.01
207.162	58.2
207.381	33.62
207.599	29.52
207.818	-1.19
208.037	29.52
208.255	35.67
208.474	105.3
208.693	41.81
208.911	31.57
209.13	72.53
209.349	25.43
209.567	56.15
209.786	76.63
210.005	164.69
210.223	-42.15
210.442	-56.49
210.661	103.25
210.879	117.59
211.098	-52.39
211.316	21.33
211.535	62.29
211.753	60.24
211.972	23.38
212.191	39.76
212.409	93.01
212.628	156.5
212.846	35.67
213.065	-3.24
213.283	72.53
213.502	-13.48
213.72	41.81
213.938	-13.48
214.157	-13.48
214.375	103.25
214.594	15.19
214.812	41.81
215.031	52.05
215.249	41.81
215.467	50
215.686	-17.58
215.904	80.72
216.122	-79.02
216.341	66.39
216.559	99.16
216.778	82.77
216.996	181.07
217.214	23.38
217.432	7
217.651	-117.93
217.869	35.67
218.087	45.91
218.306	0.85
218.524	-23.72
218.742	39.76
218.96	64.34
219.179	-7.34
219.397	-83.11
219.615	285.52
219.833	121.68
220.051	21.33
220.27	78.68
220.488	133.97
220.706	95.06
220.924	-70.83
221.142	47.96
221.36	119.64
221.578	74.58
221.796	-68.78
222.015	84.82
222.233	56.15
222.451	162.64
222.669	4.95
222.887	72.53
223.105	76.63
223.323	17.24
223.541	-70.83
223.759	39.76
223.977	64.34
224.195	113.49
224.413	50
224.631	70.48
224.849	68.44
225.067	174.93
225.285	-54.44
225.503	-33.96
225.721	-91.31
225.939	29.52
226.157	58.2
226.375	217.94
226.592	31.57
226.81	-11.43
227.028	140.12
227.246	70.48
227.464	-17.58
227.682	84.82
227.9	27.48
228.117	103.25
228.335	125.78
228.553	7
228.771	7
228.989	99.16
229.206	101.2
229.424	13.14
229.642	-29.87
229.86	-79.02
230.077	125.78
230.295	84.82
230.513	86.87
230.731	50
230.948	142.16
231.166	129.88
231.384	13.14
231.601	-11.43
231.819	197.46
232.037	-11.43
232.254	-50.35
232.472	-5.29
232.689	-58.54
232.907	78.68
233.125	-72.87
233.342	43.86
233.56	-54.44
233.777	-11.43
233.995	17.24
234.213	62.29
234.43	140.12
234.648	15.19
234.865	-83.11
235.083	47.96
235.3	4.95
235.518	78.68
235.735	127.83
235.953	99.16
236.17	41.81
236.388	52.05
236.605	29.52
236.822	84.82
237.04	99.16
237.257	33.62
237.475	0.85
237.692	68.44
237.909	-19.63
238.127	-70.83
238.344	72.53
238.562	66.39
238.779	-85.16
238.996	-107.69
239.214	-29.87
239.431	93.01
239.648	-21.67
239.865	21.33
240.083	76.63
240.3	-29.87
240.517	23.38
240.735	29.52
240.952	168.79
241.169	45.91
241.386	64.34
241.603	95.06
241.821	-9.39
242.038	29.52
242.255	93.01
242.472	80.72
242.689	123.73
242.907	23.38
243.124	37.72
243.341	-1.19
243.558	-19.63
243.775	-76.97
243.992	-87.21
244.209	39.76
244.426	146.26
244.643	9.05
244.86	4.95
245.078	23.38
245.295	39.76
245.512	-5.29
245.729	-3.24
245.946	88.92
246.163	7
246.38	-7.34
246.597	72.53
246.814	11.09
247.031	-3.24
247.248	-33.96
247.464	80.72
247.681	47.96
247.898	-13.48
248.115	70.48
248.332	23.38
248.549	133.97
248.766	113.49
248.983	113.49
249.2	23.38
249.417	105.3
249.633	-42.15
249.85	117.59
250.067	-11.43
250.284	-1.19
250.501	58.2
250.717	68.44
250.934	7
251.151	37.72
251.368	-7.34
251.585	45.91
251.801	64.34
252.018	-95.4
252.235	174.93
252.451	-17.58
252.668	-36.01
252.885	101.2
253.102	45.91
253.318	-62.63
253.535	-44.2
253.752	-85.16
253.968	29.52
254.185	-97.45
254.401	37.72
254.618	29.52
254.835	-58.54
255.051	138.07
255.268	15.19
255.484	4.95
255.701	-64.68
255.917	37.72
256.134	-1.19
256.351	117.59
256.567	-5.29
256.784	47.96
257	-60.59
257.217	72.53
257.433	29.52
257.65	2.9
257.866	195.41
258.082	-33.96
258.299	-50.35
258.515	13.14
258.732	-38.06
258.948	-15.53
259.165	62.29
259.381	-54.44
259.597	103.25
259.814	54.1
260.03	11.09
260.246	4.95
260.463	121.68
260.679	62.29
260.895	68.44
261.112	33.62
261.328	-33.96
261.544	-58.54
261.761	160.59
261.977	-81.07
262.193	9.05
262.409	25.43
262.626	111.44
262.842	2.9
263.058	-5.29
263.274	88.92
263.49	39.76
263.707	121.68
263.923	82.77
264.139	-119.98
264.355	31.57
264.571	70.48
264.787	39.76
265.004	107.35
265.22	62.29
265.436	-19.63
265.652	-25.77
265.868	25.43
266.084	-50.35
266.3	-25.77
266.516	-27.82
266.732	105.3
266.948	4.95
267.164	9.05
267.38	17.24
267.596	86.87
267.812	201.55
268.028	21.33
268.244	-1.19
268.46	11.09
268.676	-11.43
268.892	54.1
269.108	-79.02
269.324	-5.29
269.54	-15.53
269.756	31.57
269.972	-146.6
270.188	23.38
270.403	-3.24
270.619	-33.96
270.835	119.64
271.051	41.81
271.267	-13.48
271.483	37.72
271.698	68.44
271.914	78.68
272.13	23.38
272.346	31.57
272.562	23.38
272.777	205.65
272.993	-5.29
273.209	9.05
273.425	72.53
273.64	-60.59
273.856	99.16
274.072	-46.25
274.287	-56.49
274.503	31.57
274.719	103.25
274.934	105.3
275.15	-64.68
275.366	35.67
275.581	17.24
275.797	7
276.012	23.38
276.228	-56.49
276.444	-44.2
276.659	70.48
276.875	7
277.09	41.81
277.306	7
277.521	37.72
277.737	-60.59
277.952	23.38
278.168	-1.19
278.383	52.05
278.599	90.96
278.814	88.92
279.03	64.34
279.245	74.58
279.461	21.33
279.676	86.87
279.892	-48.3
280.107	-40.11
280.322	-7.34
280.538	33.62
280.753	-17.58
280.969	76.63
281.184	19.29
281.399	179.03
281.615	31.57
281.83	-7.34
282.045	-68.78
282.26	-54.44
282.476	58.2
282.691	74.58
282.906	64.34
283.122	41.81
283.337	-23.72
283.552	66.39
283.767	-31.91
283.983	60.24
284.198	19.29
284.413	60.24
284.628	-91.31
284.843	50
285.058	54.1
285.274	25.43
285.489	-87.21
285.704	103.25
285.919	-101.55
286.134	56.15
286.349	-1.19
286.564	21.33
286.779	129.88
286.995	33.62
287.21	-83.11
287.425	54.1
287.64	29.52
287.855	29.52
288.07	-9.39
288.285	181.07
288.5	113.49
288.715	43.86
288.93	15.19
289.145	-17.58
289.36	27.48
289.575	-5.29
289.79	97.11
290.004	-15.53
290.219	127.83
290.434	-52.39
290.649	-13.48
290.864	-33.96
291.079	-13.48
291.294	45.91
291.509	93.01
291.724	9.05
291.938	70.48
292.153	76.63
292.368	-66.73
292.583	31.57
292.798	115.54
293.012	64.34
293.227	99.16
293.442	-29.87
293.657	72.53
293.871	109.4
294.086	76.63
294.301	154.45
294.516	62.29
294.73	13.14
294.945	-17.58
295.16	-19.63
295.374	113.49
295.589	84.82
295.804	15.19
296.018	35.67
296.233	95.06
296.447	90.96
296.662	-29.87
296.877	162.64
297.091	54.1
297.306	93.01
297.52	-83.11
297.735	15.19
297.949	50
298.164	13.14
298.378	-5.29
298.593	-19.63
298.807	-3.24
299.022	52.05
299.236	193.36
299.451	13.14
299.665	17.24
299.88	4.95
300.094	31.57
300.309	58.2
300.523	37.72
300.737	-13.48
300.952	62.29
301.166	127.83
301.381	-81.07
301.595	31.57
301.809	37.72
302.024	25.43
302.238	-21.67
302.452	101.2
302.667	-17.58
302.881	144.21
303.095	111.44
303.309	25.43
303.524	15.19
303.738	60.24
303.952	-15.53
304.166	129.88
304.381	-42.15
304.595	131.92
304.809	-17.58
305.023	84.82
305.237	33.62
305.452	37.72
305.666	103.25
305.88	35.67
306.094	19.29
306.308	80.72
306.522	31.57
306.736	50
306.95	29.52
307.164	-17.58
307.379	29.52
307.593	138.07
307.807	103.25
308.021	50
308.235	82.77
308.449	-23.72
308.663	66.39
308.877	228.18
309.091	0.85
309.305	17.24
309.519	-95.4
309.733	41.81
309.947	-48.3
310.161	82.77
310.374	33.62
310.588	181.07
310.802	7
311.016	-40.11
311.23	86.87
311.444	-76.97
311.658	62.29
311.872	133.97
312.085	119.64
312.299	125.78
312.513	101.2
312.727	62.29
312.941	-33.96
313.154	127.83
313.368	-3.24
313.582	9.05
313.796	39.76
314.009	-1.19
314.223	160.59
314.437	45.91
314.651	25.43
314.864	-36.01
315.078	25.43
315.292	-74.92
315.505	64.34
315.719	90.96
315.933	82.77
316.146	-3.24
316.36	15.19
316.573	54.1
316.787	15.19
317.001	58.2
317.214	-46.25
317.428	58.2
317.641	-95.4
317.855	-33.96
318.068	76.63
318.282	13.14
318.495	222.03
318.709	-19.63
318.922	-1.19
319.136	191.31
319.349	125.78
319.563	-23.72
319.776	58.2
319.99	-91.31
320.203	62.29
320.417	-68.78
320.63	70.48
320.843	158.55
321.057	90.96
321.27	93.01
321.483	21.33
321.697	97.11
321.91	-17.58
322.124	80.72
322.337	99.16
322.55	-33.96
322.763	109.4
322.977	-1.19
323.19	9.05
323.403	58.2
323.617	-9.39
323.83	107.35
324.043	64.34
324.256	11.09
324.469	-66.73
324.683	86.87
324.896	-1.19
325.109	105.3
325.322	-109.74
325.535	127.83
325.748	117.59
325.962	-83.11
326.175	82.77
326.388	-5.29
326.601	80.72
326.814	0.85
327.027	97.11
327.24	111.44
327.453	-87.21
327.666	140.12
327.879	93.01
328.092	64.34
328.305	123.73
328.518	45.91
328.731	7
328.944	-31.91
329.157	80.72
329.37	-68.78
329.583	43.86
329.796	66.39
330.009	-68.78
330.222	66.39
330.435	52.05
330.648	27.48
330.861	86.87
331.073	27.48
331.286	64.34
331.499	37.72
331.712	19.29
331.925	-19.63
332.138	45.91
332.35	146.26
332.563	-42.15
332.776	107.35
332.989	-83.11
333.202	-25.77
333.414	62.29
333.627	2.9
333.84	-3.24
334.053	39.76
334.265	-33.96
334.478	-21.67
334.691	50
334.903	-62.63
335.116	-13.48
335.329	4.95
335.541	121.68
335.754	101.2
335.966	-54.44
336.179	60.24
336.392	19.29
336.604	62.29
336.817	86.87
337.029	11.09
337.242	-50.35
337.454	21.33
337.667	31.57
337.88	164.69
338.092	88.92
338.305	56.15
338.517	-101.55
338.729	33.62
338.942	138.07
339.154	-13.48
339.367	-5.29
339.579	60.24
339.792	-25.77
340.004	125.78
340.217	-36.01
340.429	86.87
340.641	-9.39
340.854	-46.25
341.066	-54.44
341.278	136.02
341.491	166.74
341.703	-33.96
341.915	4.95
342.128	119.64
342.34	37.72
342.552	-62.63
342.764	-11.43
342.977	-85.16
343.189	88.92
343.401	150.36
343.613	-70.83
343.826	54.1
344.038	-1.19
344.25	37.72
344.462	-27.82
344.674	119.64
344.886	35.67
345.099	78.68
345.311	78.68
345.523	-27.82
345.735	-165.03
345.947	64.34
346.159	66.39
346.371	72.53
346.583	27.48
346.795	154.45
347.007	56.15
347.219	72.53
347.431	-1.19
347.643	105.3
347.855	-54.44
348.067	113.49
348.279	-33.96
348.491	-5.29
348.703	95.06
348.915	60.24
349.127	-66.73
349.339	41.81
349.551	21.33
349.763	47.96
349.975	13.14
350.187	50
350.399	179.03
350.61	43.86
350.822	0.85
351.034	109.4
351.246	17.24
351.458	-11.43
351.669	29.52
351.881	129.88
352.093	148.31
352.305	113.49
352.517	97.11
352.728	133.97
352.94	72.53
353.152	41.81
353.363	2.9
353.575	107.35
353.787	142.16
353.999	84.82
354.21	170.83
354.422	-85.16
354.633	29.52
354.845	23.38
355.057	62.29
355.268	21.33
355.48	117.59
355.692	-87.21
355.903	15.19
356.115	-42.15
356.326	-140.46
356.538	95.06
356.749	72.53
356.961	179.03
357.172	86.87
357.384	-76.97
357.595	281.43
357.807	-40.11
358.018	-87.21
358.23	-23.72
358.441	170.83
358.653	62.29
358.864	19.29
359.075	-97.45
359.287	82.77
359.498	74.58
359.709	109.4
359.921	2.9
360.132	121.68
360.344	-17.58
360.555	-40.11
360.766	29.52
360.977	-13.48
361.189	80.72
361.4	-25.77
361.611	109.4
361.823	189.27
362.034	13.14
362.245	-99.5
362.456	11.09
362.667	82.77
362.879	-85.16
363.09	105.3
363.301	88.92
363.512	95.06
363.723	7
363.935	-48.3
364.146	148.31
364.357	29.52
364.568	58.2
364.779	-140.46
364.99	109.4
365.201	7
365.412	127.83
365.623	-38.06
365.834	9.05
366.045	21.33
366.256	62.29
366.467	45.91
366.678	78.68
366.889	82.77
367.1	15.19
367.311	127.83
367.522	-79.02
367.733	7
367.944	74.58
368.155	52.05
368.366	45.91
368.577	107.35
368.788	70.48
368.999	-105.64
369.209	13.14
369.42	203.6
369.631	170.83
369.842	66.39
370.053	62.29
370.264	93.01
370.474	-29.87
370.685	35.67
370.896	31.57
371.107	72.53
371.317	78.68
371.528	-50.35
371.739	105.3
371.95	117.59
372.16	21.33
372.371	-76.97
372.582	11.09
372.792	-5.29
373.003	21.33
373.214	27.48
373.424	95.06
373.635	0.85
373.846	88.92
374.056	31.57
374.267	-64.68
374.477	39.76
374.688	-97.45
374.898	84.82
375.109	64.34
375.319	37.72
375.53	90.96
375.74	82.77
375.951	52.05
376.161	54.1
376.372	9.05
376.582	-66.73
376.793	99.16
377.003	4.95
377.214	56.15
377.424	54.1
377.635	70.48
377.845	-23.72
378.055	158.55
378.266	-42.15
378.476	-54.44
378.686	54.1
378.897	15.19
379.107	4.95
379.317	172.88
379.528	2.9
379.738	107.35
379.948	-54.44
380.158	103.25
380.369	70.48
380.579	33.62
380.789	52.05
380.999	72.53
381.21	78.68
381.42	172.88
381.63	-15.53
381.84	50
382.05	84.82
382.261	131.92
382.471	88.92
382.681	-15.53
382.891	99.16
383.101	-44.2
383.311	25.43
383.521	7
383.731	35.67
383.941	101.2
384.151	-9.39
384.361	31.57
384.571	74.58
384.781	52.05
384.991	148.31
385.201	164.69
385.411	66.39
385.621	64.34
385.831	103.25
386.041	2.9
386.251	37.72
386.461	47.96
386.671	50
386.881	45.91
387.091	39.76
387.301	166.74
387.511	39.76
387.72	103.25
387.93	84.82
388.14	-76.97
388.35	72.53
388.56	45.91
388.769	140.12
388.979	-60.59
389.189	-54.44
389.399	33.62
389.609	23.38
389.818	11.09
390.028	7
390.238	82.77
390.447	23.38
390.657	60.24
390.867	29.52
391.076	-46.25
391.286	-1.19
391.496	66.39
391.705	-38.06
391.915	82.77
392.125	80.72
392.334	-97.45
392.544	154.45
392.753	35.67
392.963	-58.54
393.172	-29.87
393.382	19.29
393.591	176.98
393.801	9.05
394.01	174.93
394.22	29.52
394.429	31.57
394.639	23.38
394.848	72.53
395.058	23.38
395.267	50
395.477	25.43
395.686	105.3
395.895	260.95
396.105	226.13
396.314	78.68
396.524	47.96
396.733	21.33
396.942	109.4
397.152	47.96
397.361	97.11
397.57	21.33
397.78	23.38
397.989	54.1
398.198	174.93
398.407	103.25
398.617	21.33
398.826	60.24
399.035	68.44
399.244	101.2
399.453	2.9
399.663	29.52
399.872	52.05
400.081	-62.63
400.29	133.97
400.499	-56.49
400.708	50
400.917	11.09
401.127	-40.11
401.336	-19.63
401.545	117.59
401.754	90.96
401.963	164.69
402.172	4.95
402.381	-19.63
402.59	0.85
402.799	-1.19
403.008	70.48
403.217	39.76
403.426	60.24
403.635	-66.73
403.844	88.92
404.053	-19.63
404.262	7
404.471	140.12
404.68	60.24
404.888	-1.19
405.097	2.9
405.306	62.29
405.515	97.11
405.724	-5.29
405.933	74.58
406.142	27.48
406.35	93.01
406.559	23.38
406.768	76.63
406.977	199.51
407.185	-46.25
407.394	123.73
407.603	-70.83
407.812	58.2
408.02	41.81
408.229	4.95
408.438	113.49
408.646	-81.07
408.855	-17.58
409.064	37.72
409.272	-13.48
409.481	97.11
409.69	-17.58
409.898	-29.87
410.107	47.96
410.315	39.76
410.524	50
410.733	13.14
410.941	82.77
411.15	15.19
411.358	56.15
411.567	97.11
411.775	70.48
411.984	11.09
412.192	119.64
412.401	-1.19
412.609	68.44
412.818	125.78
413.026	74.58
413.234	-17.58
413.443	-3.24
413.651	13.14
413.86	60.24
414.068	88.92
414.276	191.31
414.485	7
414.693	183.12
414.901	164.69
415.11	54.1
415.318	50
415.526	25.43
415.734	95.06
415.943	25.43
416.151	86.87
416.359	0.85
416.567	-1.19
416.776	97.11
416.984	84.82
417.192	119.64
417.4	-7.34
417.608	-33.96
417.817	-46.25
418.025	76.63
418.233	86.87
418.441	-27.82
418.649	-9.39
418.857	123.73
419.065	150.36
419.273	-23.72
419.481	84.82
419.689	-11.43
419.897	68.44
420.105	-50.35
420.313	148.31
420.521	111.44
420.729	127.83
420.937	-87.21
421.145	-81.07
421.353	109.4
421.561	152.4
421.769	90.96
421.977	-29.87
422.185	127.83
422.393	41.81
422.601	101.2
422.809	64.34
423.017	95.06
423.224	41.81
423.432	99.16
423.64	27.48
423.848	115.54
424.056	-3.24
424.263	150.36
424.471	41.81
424.679	11.09
424.887	23.38
425.094	90.96
425.302	121.68
425.51	64.34
425.718	97.11
425.925	54.1
426.133	-5.29
426.341	129.88
426.548	-9.39
426.756	-9.39
426.964	62.29
427.171	-33.96
427.379	72.53
427.586	60.24
427.794	90.96
428.001	168.79
428.209	62.29
428.417	140.12
428.624	111.44
428.832	136.02
429.039	60.24
429.247	60.24
429.454	66.39
429.662	183.12
429.869	138.07
430.076	109.4
430.284	142.16
430.491	234.32
430.699	138.07
430.906	150.36
431.114	97.11
431.321	72.53
431.528	88.92
431.736	138.07
431.943	80.72
432.15	113.49
432.358	84.82
432.565	228.18
432.772	37.72
432.979	172.88
433.187	138.07
433.394	146.26
433.601	90.96
433.808	176.98
434.016	187.22
434.223	131.92
434.43	217.94
434.637	301.9
434.844	281.43
435.052	193.36
435.259	265.04
435.466	279.38
435.673	254.8
435.88	256.85
436.087	312.14
436.294	381.78
436.501	271.19
436.708	240.47
436.915	277.33
437.122	316.24
437.329	285.52
437.537	281.43
437.743	324.43
437.95	398.16
438.157	310.1
438.364	371.54
438.571	306
438.778	449.36
438.985	453.45
439.192	435.02
439.399	449.36
439.606	359.25
439.813	488.27
440.02	559.95
440.227	596.81
440.433	473.93
440.64	473.93
440.847	475.98
441.054	486.22
441.261	660.3
441.467	555.85
441.674	570.19
441.881	801.61
442.088	547.66
442.294	625.48
442.501	676.68
442.708	805.71
442.914	762.7
443.121	809.8
443.328	822.09
443.534	928.58
443.741	879.43
443.948	768.84
444.154	1018.69
444.361	1065.8
444.568	1002.31
444.774	983.88
444.981	951.11
445.187	1129.28
445.394	1141.57
445.6	1178.44
445.807	1305.41
446.013	1205.06
446.22	1061.7
446.426	1430.34
446.633	1428.29
446.839	1545.02
447.046	1313.6
447.252	1583.93
447.459	1497.92
447.665	1551.17
447.871	1710.91
448.078	1866.55
448.284	1854.27
448.491	1878.84
448.697	2026.29
448.903	2024.25
449.11	2057.01
449.316	2089.78
449.522	2390.83
449.728	2341.68
449.935	2448.18
450.141	2351.92
450.347	2644.78
450.553	2550.57
450.76	2677.55
450.966	2792.23
451.172	2878.25
451.378	2972.46
451.584	3052.33
451.791	3244.84
451.997	3304.23
452.203	3445.54
452.409	3777.31
452.615	3787.55
452.821	3595.04
453.027	3701.53
453.233	4162.33
453.44	3947.29
453.646	4287.25
453.852	4434.71
454.058	4563.73
454.264	4678.41
454.47	4977.42
454.676	4983.56
454.882	5323.52
455.088	5221.13
455.294	5548.8
455.5	5991.16
455.705	6150.9
455.911	6431.48
456.117	6421.24
456.323	6531.83
456.529	6689.52
456.735	7195.37
456.941	7670.5
457.147	7760.61
457.352	7826.14
457.558	8213.21
457.764	8616.66
457.97	9048.78
458.176	9202.38
458.381	9581.25
458.587	9835.2
458.793	10369.72
458.999	10119.87
459.204	11639.46
459.41	12090.01
459.616	12020.38
459.821	12407.45
460.027	13294.22
460.233	13724.29
460.438	13947.52
460.644	14770.8
460.85	14766.71
461.055	15116.91
461.261	15923.81
461.466	15682.15
461.672	16095.84
461.878	18094.66
462.083	17418.83
462.289	18086.47
462.494	18917.94
462.7	18842.17
462.905	19200.56
463.111	20474.4
463.316	21617.16
463.522	22147.59
463.727	22794.75
463.932	23808.49
464.138	24721.88
464.343	25430.48
464.549	25602.51
464.754	27296.18
464.959	28068.27
465.165	28367.27
465.37	28504.48
465.575	28172.71
465.781	30292.36
465.986	31412.6
466.191	31015.29
466.397	30892.41
466.602	30773.63
466.807	32156.01
467.012	32690.53
467.218	33300.83
467.423	33425.75
467.628	34439.5
467.833	35785.01
468.038	35199.29
468.244	34505.03
468.449	36376.87
468.654	35578.17
468.859	35420.47
469.064	35967.28
469.269	34638.15
469.474	35150.14
469.679	36204.84
469.885	35189.05
470.09	35625.27
470.295	35649.85
470.5	34959.68
470.705	35307.83
470.91	34263.37
471.115	33837.39
471.32	34677.06
471.525	34158.92
471.73	33327.45
471.935	33263.96
472.139	32080.24
472.344	31592.82
472.549	31410.55
472.754	31039.87
472.959	30343.56
473.164	29231.51
473.369	29012.38
473.574	29653.39
473.778	28993.95
473.983	28447.14
474.188	28158.38
474.393	26995.13
474.598	26763.71
474.802	26483.14
475.007	25833.93
475.212	25481.68
475.417	24601.05
475.621	24031.72
475.826	24173.03
476.031	23163.38
476.235	23003.64
476.44	23065.08
476.645	22659.58
476.849	22108.68
477.054	21926.41
477.259	21211.67
477.463	21074.45
477.668	20611.61
477.872	20640.28
478.077	20306.46
478.282	19464.75
478.486	19290.67
478.691	19065.39
478.895	18944.56
479.1	18684.47
479.304	18827.83
479.509	18047.55
479.713	18246.21
479.918	18178.62
480.122	17680.97
480.326	17758.79
480.531	17666.63
480.735	17357.39
480.94	16826.96
481.144	17836.61
481.348	16648.79
481.553	16892.5
481.757	16560.73
481.961	16673.37
482.166	16642.65
482.37	16400.99
482.574	16048.74
482.778	16108.13
482.983	16239.2
483.187	16022.11
483.391	15903.33
483.595	15540.84
483.8	15329.9
484.004	15356.52
484.208	15712.87
484.412	15166.06
484.616	15348.33
484.821	14905.97
485.025	14361.21
485.229	14606.97
485.433	14125.69
485.637	14207.61
485.841	13800.07
486.045	13603.46
486.249	13607.56
486.453	13320.84
486.657	13154.96
486.861	12964.5
487.065	12370.58
487.269	12642.96
487.473	12063.39
487.677	12386.97
487.881	12221.08
488.085	11715.23
488.289	11788.96
488.493	11457.19
488.697	11473.57
488.901	11109.04
489.105	10996.4
489.309	10615.48
489.512	10480.31
489.716	10451.64
489.92	10005.18
490.124	9816.77
490.328	10058.43
490.531	9663.17
490.735	9427.65
490.939	9575.11
491.143	9122.51
491.346	8741.58
491.55	8798.93
491.754	8663.76
491.958	8780.5
492.161	8436.44
492.365	8587.99
492.569	8024.79
492.772	8078.04
492.976	8047.32
493.18	7731.94
493.383	7820
493.587	7662.3
493.79	7639.78
493.994	7443.17
494.197	7453.41
494.401	7293.67
494.605	7267.05
494.808	7127.78
495.012	7148.26
495.215	7131.88
495.419	7150.31
495.622	6902.51
495.825	6906.6
496.029	6742.77
496.232	6920.94
496.436	6640.37
496.639	7142.12
496.843	6843.12
497.046	6720.24
497.249	6822.64
497.453	6906.6
497.656	6830.83
497.859	6898.41
498.063	6894.32
498.266	6892.27
498.469	6728.43
498.673	6888.17
498.876	6824.69
499.079	6822.64
499.282	6787.82
499.485	7256.81
499.689	6966
499.892	7082.73
500.095	6873.84
500.298	7168.74
500.501	6951.66
500.705	7166.7
500.908	7391.97
501.111	7181.03
501.314	7461.6
501.517	7516.9
501.72	7602.91
501.923	7568.1
502.126	7578.34
502.329	7938.78
502.532	7885.53
502.735	7901.92
502.938	8131.29
503.141	8096.47
503.344	8149.72
503.547	8231.64
503.75	8190.68
503.953	8383.19
504.156	8659.67
504.359	8823.5
504.562	8764.11
504.765	9153.23
504.968	8979.15
505.17	9224.9
505.373	9497.28
505.576	9595.59
505.779	9675.46
505.982	9728.7
506.185	10027.71
506.387	9992.89
506.59	10119.87
506.793	10556.08
506.996	10799.79
507.198	11031.21
507.401	11131.56
507.604	11399.85
507.807	11614.88
508.009	11762.34
508.212	11850.4
508.415	12186.27
508.617	12370.58
508.82	12348.06
509.022	12753.55
509.225	13044.37
509.428	13355.66
509.63	13660.8
509.833	13881.99
510.035	14664.31
510.238	14545.53
510.44	14770.8
510.643	15399.53
510.845	15501.93
511.048	15737.45
511.25	16149.09
511.453	16382.56
511.655	17142.35
511.858	17085.01
512.06	17766.98
512.262	17990.21
512.465	18098.75
512.667	18655.8
512.87	19059.25
513.072	19434.03
513.274	20107.81
513.477	20816.41
513.679	20912.66
513.881	21365.26
514.084	21897.74
514.286	22204.93
514.488	22669.82
514.69	23605.74
514.893	23822.83
515.095	24166.88
515.297	24984.02
515.499	25213.4
515.701	26034.63
515.904	26384.83
516.106	26939.83
516.308	27603.38
516.51	28072.36
516.712	28422.56
516.914	29053.34
517.116	29819.28
517.318	30071.18
517.52	30921.09
517.722	31451.51
517.925	32026.99
518.127	32602.47
518.329	33165.66
518.531	33292.63
518.733	34099.53
518.935	34666.82
519.136	35180.86
519.338	35883.31
519.54	36321.58
519.742	36774.18
519.944	37374.24
520.146	37867.8
520.348	38353.16
520.55	39057.67
520.752	39510.27
520.954	40202.48
521.155	39833.85
521.357	40640.75
521.559	41144.55
521.761	41902.29
521.963	41969.88
522.164	42533.07
522.366	43016.39
522.568	43442.37
522.77	43473.09
522.971	44347.57
523.173	43817.14
523.375	44634.28
523.576	44437.68
523.778	44366
523.98	45328.55
524.181	45570.21
524.383	45521.05
524.584	46024.86
524.786	46035.09
524.988	45768.86
525.189	46280.85
525.391	46256.28
525.592	46180.5
525.794	46254.23
525.995	46456.98
526.197	46117.01
526.398	46108.82
526.6	45772.95
526.801	45572.25
527.003	46047.38
527.204	45516.96
527.406	45660.32
527.607	45510.81
527.808	45256.87
528.01	44429.49
528.211	44681.39
528.412	45023.4
528.614	44480.69
528.815	44196.02
529.016	43888.82
529.218	43370.69
529.419	43147.46
529.62	42592.46
529.822	42608.84
530.023	42166.48
530.224	41808.09
530.425	41036
530.626	40734.95
530.828	40153.33
531.029	40540.39
531.23	39665.91
531.431	38891.78
531.632	39022.85
531.833	38719.75
532.035	37884.18
532.236	37376.28
532.437	37112.1
532.638	36284.72
532.839	36391.21
533.04	35981.62
533.241	35199.29
533.442	35217.72
533.643	34339.15
533.844	34355.53
534.045	33788.24
534.246	32770.4
534.447	32758.11
534.648	32037.23
534.849	32115.05
535.05	31238.52
535.251	31046.01
535.451	30312.84
535.652	29958.54
535.853	29876.62
536.054	29430.16
536.255	28830.11
536.456	28481.95
536.657	28373.41
536.857	27947.43
537.058	27687.34
537.259	27367.86
537.46	26802.62
537.66	26393.03
537.861	26360.26
538.062	25639.37
538.263	25358.8
538.463	25283.03
538.664	24779.23
538.865	24236.52
539.065	24109.54
539.266	23931.37
539.466	23745
539.667	23239.15
539.868	22921.72
540.068	22651.39
540.269	22585.85
540.469	22432.26
540.67	22086.15
540.87	21918.21
541.071	21479.95
541.271	21334.54
541.472	20877.85
541.672	20836.89
541.873	20525.6
542.073	20032.04
542.274	20423.2
542.474	19788.33
542.675	19599.91
542.875	19374.64
543.075	19053.11
543.276	18657.85
543.476	18856.5
543.676	18283.07
543.877	18158.14
544.077	18252.35
544.277	18006.59
544.478	17611.34
544.678	17547.85
544.878	17269.33
545.078	17433.16
545.279	16781.91
545.479	16620.12
545.679	16769.62
545.879	16458.33
546.079	16220.77
546.28	15968.87
546.48	15465.07
546.68	15680.1
546.88	15598.18
547.08	14889.59
547.28	15065.71
547.48	14957.17
547.68	14688.89
547.88	14330.49
548.081	14539.38
548.281	14084.73
548.481	14019.2
548.681	13943.42
548.881	13730.44
549.081	13503.11
549.28	13197.96
549.48	13329.03
549.68	12929.68
549.88	12896.91
550.08	12421.78
550.28	12350.1
550.48	12266.14
550.68	12186.27
550.88	11709.09
551.08	11707.04
551.279	11750.05
551.479	11254.44
551.679	11283.11
551.879	11045.55
552.079	10971.82
552.278	10742.45
552.478	10549.94
552.678	10642.1
552.878	10582.71
553.077	10263.22
553.277	9843.39
553.477	9845.44
553.676	9800.38
553.876	9319.11
554.076	9272.01
554.275	9333.45
554.475	9063.12
554.674	9077.45
554.874	8987.34
555.074	8569.55
555.273	8479.44
555.473	8440.53
555.672	8180.44
555.872	8030.94
556.071	8075.99
556.271	8131.29
556.47	7766.75
556.67	7604.96
556.869	7561.95
557.068	7373.54
557.268	7152.36
557.467	7154.41
557.667	7172.84
557.866	7090.92
558.065	6943.47
558.265	6773.49
558.464	6617.84
558.663	6587.12
558.863	6159.1
559.062	6275.83
559.261	6150.9
559.461	6066.94
559.66	5970.68
559.859	5917.44
560.058	5745.41
560.258	5540.61
560.457	5663.49
560.656	5626.62
560.855	5432.07
561.054	5573.38
561.253	5198.6
561.453	5237.51
561.652	5077.77
561.851	5073.67
562.05	4983.56
562.249	4817.68
562.448	4782.86
562.647	4705.04
562.846	4762.38
563.045	4750.09
563.244	4522.77
563.443	4549.39
563.642	4479.76
563.841	4365.07
564.04	4221.72
564.239	4162.33
564.438	4191
564.637	3877.66
564.836	4043.54
565.035	3955.48
565.234	3863.32
565.432	3822.36
565.631	3730.2
565.83	3810.08
566.029	3439.39
566.228	3560.22
566.427	3658.53
566.625	3359.52
566.824	3468.06
567.023	3588.89
567.222	3310.37
567.42	3466.02
567.619	3255.08
567.818	3326.75
568.016	3353.38
568.215	3179.3
568.414	3242.79
568.612	3146.53
568.811	3001.13
569.01	2892.59
569.208	3074.85
569.407	3005.22
569.605	2890.54
569.804	2861.87
570.002	2857.77
570.201	2679.6
570.4	2716.46
570.598	2673.45
570.797	2644.78
570.995	2562.86
571.193	2503.47
571.392	2560.81
571.59	2366.26
571.789	2497.33
571.987	2386.74
572.186	2489.14
572.384	2227
572.582	2214.71
572.781	2276.15
572.979	2071.35
573.177	2196.28
573.376	2151.22
573.574	2104.12
573.772	2040.63
573.971	1958.71
574.169	1975.1
574.367	2016.05
574.565	1866.55
574.763	1835.83
574.962	1979.19
575.16	1813.31
575.358	1772.35
575.556	1790.78
575.754	1882.94
575.952	1725.24
576.151	1786.68
576.349	1755.96
576.547	1602.36
576.745	1669.95
576.943	1782.59
577.141	1555.26
577.339	1454.91
577.537	1665.85
577.735	1608.51
577.933	1581.89
578.131	1467.2
578.329	1551.17
578.527	1332.03
578.725	1542.97
578.923	1207.11
579.121	1438.53
579.319	1213.25
579.516	1329.99
579.714	1450.82
579.912	1307.46
580.11	1250.11
580.308	1270.59
580.506	1166.15
580.704	1153.86
580.901	1114.95
581.099	1344.32
581.297	1092.42
581.495	1119.04
581.692	1096.52
581.89	1153.86
582.088	1168.2
582.285	1061.7
582.483	1059.65
582.681	1061.7
582.878	940.87
583.076	1041.22
583.274	1022.79
583.471	1227.59
583.669	934.73
583.866	916.3
584.064	893.77
584.262	834.38
584.459	934.73
584.657	963.4
584.854	910.15
585.052	953.16
585.249	914.25
585.447	842.57
585.644	756.55
585.841	930.63
586.039	910.15
586.236	873.29
586.434	756.55
586.631	752.46
586.828	686.92
587.026	734.03
587.223	709.45
587.42	791.37
587.618	768.84
587.815	852.81
588.012	658.25
588.21	629.58
588.407	750.41
588.604	682.83
588.801	635.72
588.999	658.25
589.196	742.22
589.393	568.14
589.59	693.07
589.787	631.63
589.984	643.92
590.182	654.16
590.379	609.1
590.576	621.39
590.773	617.29
590.97	549.71
591.167	666.44
591.364	693.07
591.561	521.04
591.758	697.16
591.955	613.2
592.152	549.71
592.349	611.15
592.546	502.61
592.743	578.38
592.94	578.38
593.137	625.48
593.334	731.98
593.531	725.83
593.727	740.17
593.924	584.52
594.121	572.24
594.318	574.28
594.515	703.31
594.712	764.75
594.908	693.07
595.105	504.65
595.302	611.15
595.499	617.29
595.696	766.79
595.892	693.07
596.089	734.03
596.286	645.96
596.482	803.66
596.679	746.31
596.876	693.07
597.072	852.81
597.269	879.43
597.466	820.04
597.662	793.42
597.859	725.83
598.055	883.53
598.252	904.01
598.448	1037.13
598.645	942.92
598.841	1047.37
599.038	1071.94
599.234	1172.29
599.431	1112.9
599.627	1221.44
599.824	1264.45
600.02	1278.79
600.217	1289.03
600.413	1332.03
600.609	1317.7
600.806	1524.54
601.002	1434.43
601.198	1526.59
601.395	1692.48
601.591	1653.56
601.787	1725.24
601.984	1821.5
602.18	1913.66
602.376	1981.24
602.572	1983.29
602.769	2087.73
602.965	2171.7
603.161	2145.08
603.357	2259.76
603.553	2380.59
603.75	2446.13
603.946	2603.82
604.142	2556.72
604.338	2806.57
604.534	2648.88
604.73	2843.43
604.926	3003.18
605.122	3199.78
605.318	3181.35
605.514	3320.61
605.71	3318.56
605.906	3420.96
606.102	3586.85
606.298	3576.61
606.494	3785.5
606.69	3871.51
606.886	3963.67
607.082	3922.71
607.278	4184.85
607.474	4258.58
607.67	4457.23
607.866	4403.99
608.062	4762.38
608.257	4827.92
608.453	4815.63
608.649	5079.82
608.845	5169.93
609.041	5249.8
609.236	5577.47
609.432	5700.35
609.628	5812.99
609.824	5849.85
610.019	6064.89
610.215	6351.6
610.411	6482.67
610.606	6658.8
610.802	6697.71
610.998	7027.43
611.193	7219.94
611.389	7351.01
611.584	7686.88
611.78	7664.35
611.976	7830.24
612.171	8237.78
612.367	8399.57
612.562	8518.36
612.758	8725.2
612.953	8889.04
613.149	9261.77
613.344	9300.68
613.539	9745.09
613.735	9917.12
613.93	10392.25
614.126	10451.64
614.321	10828.46
614.517	11266.73
614.712	11342.5
614.907	11504.29
615.103	11971.23
615.298	12280.47
615.493	12421.78
615.688	12556.95
615.884	13210.25
616.079	13402.76
616.274	13750.92
616.47	13939.33
616.665	14271.1
616.86	14803.57
617.055	15274.6
617.25	15669.86
617.445	16089.7
617.641	16208.48
617.836	16671.32
618.031	16761.43
618.226	18006.59
618.421	17683.02
618.616	18266.69
618.811	18524.73
619.006	19440.17
619.201	19569.19
619.396	20224.54
619.591	20095.52
619.786	21090.84
619.981	21129.75
620.176	21862.92
620.371	22041.09
620.566	22592
620.761	23142.9
620.956	23923.18
621.151	24023.53
621.346	24801.75
621.541	24994.26
621.735	25643.47
621.93	25719.24
622.125	26628.54
622.32	26661.31
622.515	27453.87
622.709	28248.49
622.904	28367.27
623.099	28785.05
623.294	29561.23
623.488	29591.95
623.683	30603.65
623.878	30476.68
624.072	31658.35
624.267	31904.11
624.462	32586.08
624.656	32424.29
624.851	33239.39
625.046	33384.79
625.24	34289.99
625.435	34392.39
625.629	35121.47
625.824	35596.6
626.018	36157.74
626.213	35879.22
626.407	37060.9
626.602	36774.18
626.796	37808.4
626.991	38072.59
627.185	38191.37
627.38	38457.61
627.574	38750.47
627.768	38639.88
627.963	38822.15
628.157	38813.96
628.352	39989.49
628.546	39121.15
628.74	39555.32
628.935	39031.04
629.129	39950.58
629.323	38936.84
629.517	39092.48
629.712	39045.38
629.906	38492.43
630.1	37933.33
630.294	37873.94
630.489	37042.46
630.683	36958.5
630.877	36536.62
631.071	35840.31
631.265	35496.25
631.459	34789.7
631.653	34187.6
631.848	33309.02
632.042	32723.3
632.236	32108.91
632.43	30988.67
632.624	30325.13
632.818	28985.76
633.012	28404.13
633.206	27359.67
633.4	26659.26
633.594	25448.91
633.788	24881.63
633.982	24023.53
634.176	23529.97
634.369	22055.43
634.563	21471.76
634.757	20535.84
634.951	20099.62
635.145	19122.74
635.339	18418.24
635.533	17519.18
635.726	16833.11
635.92	16208.48
636.114	15585.9
636.308	14783.09
636.501	14535.29
636.695	13974.14
636.889	13296.27
637.083	12720.79
637.276	12282.52
637.47	11629.22
637.664	11336.36
637.857	10795.7
638.051	10406.58
638.244	10009.28
638.438	9544.39
638.632	9384.65
638.825	8710.86
639.019	8446.68
639.212	8129.24
639.406	7916.25
639.599	7527.14
639.793	7271.14
639.986	6935.28
640.18	6705.9
640.373	6542.07
640.567	6085.37
640.76	6032.12
640.954	5726.97
641.147	5444.35
641.34	5223.17
641.534	5077.77
641.727	4899.59
641.92	4664.08
642.114	4645.65
642.307	4277.01
642.5	4094.74
642.694	3859.23
642.887	3785.5
643.08	3973.91
643.273	3715.87
643.467	3439.39
643.66	3382.05
643.853	3183.4
644.046	3019.56
644.239	2964.26
644.432	2718.51
644.626	2687.79
644.819	2554.67
645.012	2538.29
645.205	2464.56
645.398	2476.85
645.591	2337.59
645.784	2130.74
645.977	1952.57
646.17	2057.01
646.363	1895.22
646.556	1864.5
646.749	1690.43
646.942	1764.15
647.135	1731.39
647.328	1534.78
647.521	1653.56
647.714	1483.58
647.907	1473.34
648.099	1321.79
648.292	1428.29
648.485	1305.41
648.678	1213.25
648.871	1139.52
649.064	1051.46
649.256	1080.13
649.449	1039.17
649.642	895.82
649.835	965.45
650.027	951.11
650.22	965.45
650.413	895.82
650.605	807.75
650.798	795.47
650.991	822.09
651.183	813.9
651.376	817.99
651.568	742.22
651.761	703.31
651.954	654.16
652.146	598.86
652.339	660.3
652.531	691.02
652.724	488.27
652.916	570.19
653.109	398.16
653.301	559.95
653.494	537.42
653.686	578.38
653.879	609.1
654.071	521.04
654.263	394.06
654.456	435.02
654.648	549.71
654.84	492.37
655.033	359.25
655.225	590.67
655.417	326.48
655.61	527.18
655.802	396.11
655.994	508.75
656.186	242.51
656.379	400.21
656.571	265.04
656.763	322.38
656.955	287.57
657.148	320.34
657.34	414.54
657.532	293.71
657.724	230.23
657.916	342.86
658.108	373.58
658.3	365.39
658.492	301.9
658.684	156.5
658.876	340.82
659.068	172.88
659.26	170.83
659.452	170.83
659.644	254.8
659.836	389.97
660.028	236.37
660.22	187.22
660.412	183.12
660.604	252.75
660.796	217.94
660.988	289.62
661.18	289.62
661.372	240.47
661.563	166.74
661.755	131.92
661.947	133.97
662.139	189.27
662.331	162.64
662.522	189.27
662.714	125.78
662.906	70.48
663.097	64.34
663.289	70.48
663.481	41.81
663.673	174.93
663.864	174.93
664.056	252.75
664.247	52.05
664.439	242.51
664.631	121.68
664.822	219.99
665.014	158.55
665.205	35.67
665.397	117.59
665.588	88.92
665.78	66.39
665.971	101.2
666.163	142.16
666.354	238.42
666.546	123.73
666.737	88.92
666.929	168.79
667.12	107.35
667.311	68.44
667.503	103.25
667.694	113.49
667.885	103.25
668.077	162.64
668.268	17.24
668.459	127.83
668.651	164.69
668.842	174.93
669.033	47.96
669.224	68.44
669.416	295.76
669.607	80.72
669.798	0.85
669.989	187.22
670.18	95.06
670.371	146.26
670.563	37.72
670.754	164.69
670.945	117.59
671.136	129.88
671.327	54.1
671.518	187.22
671.709	224.08
671.9	125.78
672.091	316.24
672.282	47.96
672.473	31.57
672.664	54.1
672.855	142.16
673.046	111.44
673.237	195.41
673.428	189.27
673.619	207.7
673.809	107.35
674	248.66
674.191	168.79
674.382	33.62
674.573	70.48
674.764	66.39
674.954	172.88
675.145	54.1
675.336	9.05
675.527	-7.34
675.717	129.88
675.908	142.16
676.099	35.67
676.289	138.07
676.48	31.57
676.671	93.01
676.861	80.72
677.052	86.87
677.243	93.01
677.433	66.39
677.624	156.5
677.814	172.88
678.005	80.72
678.195	179.03
678.386	82.77
678.576	86.87
678.767	4.95
678.957	140.12
679.148	248.66
679.338	213.84
679.529	224.08
679.719	209.75
679.909	279.38
680.1	150.36
680.29	152.4
680.481	35.67
680.671	258.9
680.861	172.88
681.052	117.59
681.242	80.72
681.432	103.25
681.622	158.55
681.813	-7.34
682.003	142.16
682.193	82.77
682.383	111.44
682.573	80.72
682.764	125.78
682.954	224.08
683.144	262.99
683.334	60.24
683.524	127.83
683.714	248.66
683.904	103.25
684.094	146.26
684.284	117.59
684.474	287.57
684.664	238.42
684.854	179.03
685.044	123.73
685.234	113.49
685.424	148.31
685.614	58.2
685.804	271.19
685.994	164.69
686.184	166.74
686.374	213.84
686.564	72.53
686.753	146.26
686.943	62.29
687.133	84.82
687.323	140.12
687.513	183.12
687.702	179.03
687.892	93.01
688.082	297.81
688.272	195.41
688.461	154.45
688.651	297.81
688.841	242.51
689.03	125.78
689.22	105.3
689.41	168.79
689.599	160.59
689.789	150.36
689.979	277.33
690.168	64.34
690.358	211.79
690.547	154.45
690.737	160.59
690.926	207.7
691.116	154.45
691.305	111.44
691.495	209.75
691.684	72.53
691.874	176.98
692.063	164.69
692.252	224.08
692.442	111.44
692.631	181.07
692.82	86.87
693.01	127.83
693.199	109.4
693.388	185.17
693.578	62.29
693.767	256.85
693.956	228.18
694.146	203.6
694.335	152.4
694.524	129.88
694.713	133.97
694.902	138.07
695.092	111.44
695.281	152.4
695.47	140.12
695.659	129.88
695.848	217.94
696.037	125.78
696.226	240.47
696.415	209.75
696.604	269.14
696.793	273.23
696.982	93.01
697.171	244.56
697.36	142.16
697.549	78.68
697.738	-52.39
697.927	160.59
698.116	45.91
698.305	201.55
698.494	133.97
698.683	125.78
698.872	353.1
699.061	181.07
699.25	31.57
699.438	150.36
699.627	123.73
699.816	240.47
700.005	133.97
700.193	97.11
700.382	133.97
700.571	228.18
700.76	123.73
700.948	271.19
701.137	197.46
701.326	213.84
701.514	2.9
701.703	181.07
701.892	125.78
702.08	226.13
702.269	158.55
702.457	142.16
702.646	142.16
702.834	123.73
703.023	181.07
703.212	176.98
703.4	174.93
703.589	119.64
703.777	66.39
703.965	93.01
704.154	156.5
704.342	107.35
704.531	127.83
704.719	179.03
704.907	164.69
705.096	129.88
705.284	45.91
705.472	123.73
705.661	201.55
705.849	201.55
706.037	201.55
706.226	187.22
706.414	228.18
706.602	62.29
706.79	234.32
706.979	142.16
707.167	39.76
707.355	93.01
707.543	166.74
707.731	140.12
707.919	109.4
708.107	113.49
708.296	66.39
708.484	17.24
708.672	80.72
708.86	240.47
709.048	181.07
709.236	70.48
709.424	183.12
709.612	80.72
709.8	80.72
709.988	191.31
710.176	187.22
710.364	187.22
710.551	172.88
710.739	68.44
710.927	56.15
711.115	166.74
711.303	189.27
711.491	183.12
711.679	127.83
711.866	140.12
712.054	146.26
712.242	99.16
712.43	279.38
712.617	146.26
712.805	228.18
712.993	158.55
713.181	78.68
713.368	172.88
713.556	146.26
713.744	131.92
713.931	355.15
714.119	183.12
714.306	158.55
714.494	50
714.682	82.77
714.869	31.57
715.057	115.54
715.244	76.63
715.432	252.75
715.619	162.64
715.807	179.03
715.994	101.2
716.182	179.03
716.369	254.8
716.556	164.69
716.744	-7.34
716.931	72.53
717.119	113.49
717.306	154.45
717.493	207.7
717.681	82.77
717.868	113.49
718.055	183.12
718.242	129.88
718.43	121.68
718.617	244.56
718.804	203.6
718.991	248.66
719.179	158.55
719.366	244.56
719.553	217.94
719.74	228.18
719.927	111.44
720.114	138.07
720.301	25.43
720.488	39.76
720.676	84.82
720.863	213.84
721.05	357.2
721.237	265.04
721.424	160.59
721.611	191.31
721.798	54.1
721.985	140.12
722.172	90.96
722.358	201.55
722.545	244.56
722.732	207.7
722.919	273.23
723.106	256.85
723.293	148.31
723.48	154.45
723.667	82.77
723.853	246.61
724.04	219.99
724.227	248.66
724.414	154.45
724.6	185.17
724.787	244.56
724.974	308.05
725.161	254.8
725.347	90.96
725.534	234.32
725.72	211.79
725.907	236.37
726.094	174.93
726.28	99.16
726.467	82.77
726.653	109.4
726.84	338.77
727.027	357.2
727.213	154.45
727.4	213.84
727.586	174.93
727.773	279.38
727.959	148.31
728.145	136.02
728.332	156.5
728.518	111.44
728.705	205.65
728.891	154.45
729.077	187.22
729.264	125.78
729.45	156.5
729.636	258.9
729.823	197.46
730.009	252.75
730.195	238.42
730.382	195.41
730.568	158.55
730.754	244.56
730.94	162.64
731.126	201.55
731.313	250.71
731.499	215.89
731.685	215.89
731.871	211.79
732.057	181.07
732.243	215.89
732.429	252.75
732.615	318.29
732.801	215.89
732.987	179.03
733.173	242.51
733.359	193.36
733.545	244.56
733.731	201.55
733.917	224.08
734.103	258.9
734.289	154.45
734.475	121.68
734.661	324.43
734.847	248.66
735.033	310.1
735.219	226.13
735.404	174.93
735.59	66.39
735.776	144.21
735.962	142.16
736.148	301.9
736.333	324.43
736.519	179.03
736.705	195.41
736.89	166.74
737.076	181.07
737.262	160.59
737.447	109.4
737.633	158.55
737.819	211.79
738.004	111.44
738.19	207.7
738.375	211.79
738.561	213.84
738.747	238.42
738.932	142.16
739.118	277.33
739.303	236.37
739.489	244.56
739.674	162.64
739.859	174.93
740.045	295.76
740.23	252.75
740.416	136.02
740.601	222.03
740.786	154.45
740.972	60.24
741.157	146.26
741.342	140.12
741.528	181.07
741.713	322.38
741.898	185.17
742.084	144.21
742.269	121.68
742.454	234.32
742.639	217.94
742.824	303.95
743.01	301.9
743.195	267.09
743.38	248.66
743.565	189.27
743.75	252.75
743.935	205.65
744.12	314.19
744.305	140.12
744.49	213.84
744.675	199.51
744.86	224.08
745.045	262.99
745.23	121.68
745.415	203.6
745.6	330.58
745.785	150.36
745.97	224.08
746.155	199.51
746.34	289.62
746.525	158.55
746.71	287.57
746.895	168.79
747.079	84.82
747.264	133.97
747.449	256.85
747.634	240.47
747.819	185.17
748.003	189.27
748.188	50
748.373	201.55
748.557	240.47
748.742	168.79
748.927	129.88
749.111	84.82
749.296	230.23
749.481	265.04
749.665	138.07
749.85	158.55
750.034	152.4
750.219	287.57
750.404	152.4
750.588	185.17
750.773	115.54
750.957	86.87
751.141	109.4
751.326	217.94
751.51	103.25
751.695	158.55
751.879	181.07
752.064	303.95
752.248	185.17
752.432	226.13
752.617	215.89
752.801	160.59
752.985	140.12
753.17	113.49
753.354	136.02
753.538	162.64
753.722	70.48
753.907	97.11
754.091	-1.19
754.275	179.03
754.459	7
754.643	150.36
754.828	170.83
755.012	86.87
755.196	0.85
755.38	101.2
755.564	88.92
755.748	172.88
755.932	117.59
756.116	244.56
756.3	164.69
756.484	176.98
756.668	195.41
756.852	15.19
757.036	105.3
757.22	62.29
757.404	129.88
757.588	162.64
757.772	129.88
757.956	154.45
758.14	222.03
758.323	62.29
758.507	74.58
758.691	23.38
758.875	115.54
759.059	219.99
759.242	19.29
759.426	115.54
759.61	121.68
759.794	47.96
759.977	88.92
760.161	332.62
760.345	172.88
760.528	205.65
760.712	80.72
760.895	86.87
761.079	127.83
761.263	66.39
761.446	-15.53
761.63	107.35
761.813	80.72
761.997	9.05
762.18	119.64
762.364	181.07
762.547	-1.19
762.731	78.68
762.914	109.4
763.098	-21.67
763.281	0.85
763.464	23.38
763.648	74.58
763.831	84.82
764.015	43.86
764.198	113.49
764.381	117.59
764.564	123.73
764.748	115.54
764.931	15.19
765.114	15.19
765.297	41.81
765.481	-48.3
765.664	76.63
765.847	72.53
766.03	142.16
766.213	-17.58
766.397	-44.2
766.58	-33.96
766.763	58.2
766.946	107.35
767.129	97.11
767.312	35.67
767.495	21.33
767.678	21.33
767.861	80.72
768.044	60.24
768.227	45.91
768.41	23.38
768.593	78.68
768.776	129.88
768.959	-19.63
769.142	123.73
769.324	37.72
769.507	7
769.69	-1.19
769.873	68.44
770.056	262.99
770.239	54.1
770.421	191.31
770.604	9.05
770.787	43.86
770.97	109.4
771.152	-31.91
771.335	25.43
771.518	47.96
771.7	113.49
771.883	158.55
772.066	-72.87
772.248	37.72
772.431	47.96
772.613	103.25
772.796	45.91
772.978	64.34
773.161	168.79
773.343	27.48
773.526	-72.87
773.708	-70.83
773.891	-13.48
774.073	56.15
774.256	-9.39
774.438	119.64
774.621	-95.4
774.803	70.48
774.985	-1.19
775.168	111.44
775.35	95.06
775.532	109.4
775.715	-33.96
775.897	154.45
776.079	2.9
776.261	78.68
776.444	74.58
776.626	39.76
776.808	9.05
776.99	-103.59
777.173	35.67
777.355	7
777.537	29.52
777.719	0.85
777.901	-17.58
778.083	-23.72
778.265	-89.26
778.447	158.55
778.629	-64.68
778.811	19.29
778.993	138.07
779.175	60.24
779.357	29.52
779.539	-70.83
779.721	23.38
779.903	52.05
780.085	25.43
780.267	58.2
780.449	39.76
780.631	35.67
780.812	101.2
780.994	-33.96
781.176	64.34
781.358	27.48
781.54	17.24
781.721	54.1
781.903	60.24
782.085	0.85
782.267	37.72
782.448	-42.15
782.63	-33.96
782.812	19.29
782.993	133.97
783.175	50
783.357	7
783.538	93.01
783.72	-66.73
783.901	39.76
784.083	37.72
784.264	113.49
784.446	-62.63
784.627	-54.44
784.809	-15.53
784.99	-40.11
785.172	11.09
785.353	17.24
785.535	80.72
785.716	-46.25
785.897	-70.83
786.079	11.09
786.26	35.67
786.441	15.19
786.623	-97.45
786.804	-38.06
786.985	54.1
787.167	39.76
787.348	56.15
787.529	11.09
787.71	133.97
787.891	129.88
788.073	39.76
788.254	-79.02
788.435	115.54
788.616	25.43
788.797	-64.68
788.978	-3.24
789.159	-66.73
789.34	52.05
789.522	-23.72
789.703	-44.2
789.884	25.43
790.065	33.62
790.246	219.99
790.427	-3.24
790.607	101.2
790.788	39.76
790.969	-89.26
791.15	50
791.331	-46.25
791.512	7
791.693	-56.49
791.874	-19.63
792.054	217.94
792.235	78.68
792.416	-70.83
792.597	-93.35
792.778	43.86
792.958	23.38
793.139	15.19
793.32	62.29
793.5	-83.11
793.681	140.12
793.862	29.52
794.042	7
794.223	-13.48
794.404	43.86
794.584	-83.11
794.765	-87.21
794.945	-19.63
795.126	29.52
795.306	99.16
795.487	-15.53
795.667	-17.58
795.848	105.3
796.028	-9.39
796.209	-36.01
796.389	35.67
796.57	11.09
796.75	-27.82
796.93	-7.34
797.111	-79.02
797.291	7
797.471	140.12
797.652	76.63
797.832	-15.53
798.012	131.92
798.192	-97.45
798.373	-46.25
798.553	-13.48
798.733	117.59
798.913	-119.98
799.093	-76.97
799.274	47.96
799.454	2.9
799.634	68.44
799.814	9.05
799.994	29.52
800.174	31.57
800.354	88.92
800.534	-15.53
800.714	74.58
800.894	-74.92
801.074	-89.26
801.254	-38.06
801.434	140.12
801.614	-9.39
801.794	-95.4
801.974	1725.24
802.154	17.24
802.334	29.52
802.514	-171.18
802.693	7
802.873	11.09
803.053	78.68
803.233	50
803.413	52.05
803.592	-60.59
803.772	9.05
803.952	-7.34
804.131	-103.59
804.311	76.63
804.491	58.2
804.67	-115.88
804.85	17.24
805.03	-5.29
805.209	72.53
805.389	-17.58
805.568	-50.35
805.748	-46.25
805.928	78.68
806.107	-15.53
806.287	-31.91
806.466	7
806.646	56.15
806.825	-15.53
807.004	-122.02
807.184	39.76
807.363	105.3
807.543	27.48
807.722	-17.58
807.901	152.4
808.081	86.87
808.26	-124.07
808.439	15.19
808.619	31.57
808.798	-19.63
808.977	9.05
809.156	13.14
809.336	58.2
809.515	109.4
809.694	-40.11
809.873	-17.58
810.052	15.19
810.231	117.59
810.411	35.67
810.59	56.15
810.769	-11.43
810.948	88.92
811.127	-152.74
811.306	-27.82
811.485	-21.67
811.664	99.16
811.843	43.86
812.022	2.9
812.201	-29.87
812.38	-40.11
812.559	-29.87
812.737	9.05
812.916	-109.74
813.095	-9.39
813.274	66.39
813.453	33.62
813.632	-25.77
813.811	119.64
813.989	-113.83
814.168	52.05
814.347	-140.46
814.526	41.81
814.704	183.12
814.883	101.2
815.062	-117.93
815.24	17.24
815.419	-87.21
815.598	84.82
815.776	-97.45
815.955	-33.96
816.133	-111.78
816.312	2.9
816.49	-19.63
816.669	25.43
816.847	-40.11
817.026	11.09
817.204	-40.11
817.383	-1.19
817.561	-99.5
817.74	15.19
817.918	39.76
818.097	-46.25
818.275	-1.19
818.453	2.9
818.632	41.81
818.81	0.85
818.988	-76.97
819.167	-74.92
819.345	37.72
819.523	-66.73
819.701	45.91
819.879	35.67
820.058	52.05
820.236	35.67
820.414	2.9
820.592	-19.63
820.77	29.52
820.948	-130.22
821.127	-54.44
821.305	-33.96
821.483	-23.72
821.661	70.48
821.839	39.76
822.017	-109.74
822.195	-58.54
822.373	-27.82
822.551	-13.48
822.729	11.09
822.907	60.24
823.085	-5.29
823.262	-1.19
823.44	-103.59
823.618	-31.91
823.796	9.05
823.974	0.85
824.152	-126.12
824.329	-5.29
824.507	-81.07
824.685	-70.83
824.863	-87.21
825.04	19.29
825.218	21.33
825.396	82.77
825.574	-44.2
825.751	47.96
825.929	52.05
826.107	-66.73
826.284	-33.96
826.462	4.95
826.639	-160.94
826.817	-5.29
826.994	-11.43
827.172	-97.45
827.349	101.2
827.527	-33.96
827.704	-15.53
827.882	-13.48
828.059	-40.11
828.237	-27.82
828.414	41.81
828.591	-144.55
828.769	31.57
828.946	-72.87
829.124	60.24
829.301	47.96
829.478	-3.24
829.655	43.86
829.833	-48.3
830.01	-99.5
830.187	15.19
830.364	-31.91
830.542	70.48
830.719	58.2
830.896	29.52
831.073	17.24
831.25	-46.25
831.427	47.96
831.604	-29.87
831.782	-99.5
831.959	13.14
832.136	-54.44
832.313	88.92
832.49	-19.63
832.667	19.29
832.844	-11.43
833.021	115.54
833.198	2.9
833.374	-101.55
833.551	0.85
833.728	-38.06
833.905	60.24
834.082	-11.43
834.259	-23.72
834.436	68.44
834.612	-60.59
834.789	39.76
834.966	47.96
835.143	80.72
835.319	-60.59
835.496	39.76
835.673	47.96
835.85	84.82
836.026	47.96
836.203	74.58
836.38	-158.89
836.556	-33.96
836.733	-3.24
836.909	66.39
837.086	-58.54
837.262	-66.73
837.439	-40.11
837.616	-105.64
837.792	-15.53
837.968	29.52
838.145	-113.83
838.321	25.43
838.498	50
838.674	-9.39
838.851	-27.82
839.027	-21.67
839.203	-72.87
839.38	2.9
839.556	-136.36
839.732	90.96
839.909	-3.24
840.085	-17.58
840.261	-66.73
840.437	-21.67
840.614	-50.35
840.79	23.38
840.966	31.57
841.142	23.38
841.318	-33.96
841.494	41.81
841.671	45.91
841.847	-19.63
842.023	-70.83
842.199	25.43
842.375	99.16
842.551	-152.74
842.727	-21.67
842.903	33.62
843.079	-109.74
843.255	86.87
843.431	35.67
843.607	17.24
843.783	-152.74
843.959	-11.43
844.134	-60.59
844.31	-23.72
844.486	-74.92
844.662	-81.07
844.838	-46.25
845.013	111.44
845.189	25.43
845.365	-50.35
845.541	-40.11
845.716	11.09
845.892	-15.53
846.068	-97.45
846.244	13.14
846.419	-15.53
846.595	-132.26
846.77	-50.35
846.946	95.06
847.122	-46.25
847.297	-99.5
847.473	129.88
847.648	-70.83
847.824	19.29
847.999	-87.21
848.175	-11.43
848.35	19.29
848.526	101.2
848.701	15.19
848.876	-11.43
849.052	140.12
849.227	-79.02
849.403	39.76
849.578	-89.26
849.753	58.2
849.929	27.48
850.104	-97.45
850.279	-21.67
850.454	64.34
850.63	47.96
850.805	-52.39
850.98	-19.63
851.155	29.52
851.33	19.29
851.505	-56.49
851.681	99.16
851.856	-54.44
852.031	62.29
852.206	-62.63
852.381	-46.25
852.556	-103.59
852.731	64.34
852.906	-1.19
853.081	37.72
853.256	31.57
853.431	-50.35
853.606	-115.88
853.781	15.19
853.956	-152.74
854.131	-17.58
854.305	-70.83
854.48	-25.77
854.655	-87.21
854.83	-3.24
855.005	-46.25
855.18	-36.01
855.354	-58.54
855.529	-70.83
855.704	-5.29
855.879	41.81
856.053	-46.25
856.228	39.76
856.403	-29.87
856.577	15.19
856.752	-79.02
856.926	-25.77
857.101	-7.34
857.276	-68.78
857.45	13.14
857.625	0.85
857.799	-25.77
857.974	-7.34
858.148	-130.22
858.323	78.68
858.497	-68.78
858.672	-33.96
858.846	-33.96
859.02	39.76
859.195	-3.24
859.369	-5.29
859.543	-40.11
859.718	-29.87
859.892	-3.24
860.066	25.43
860.241	-72.87
860.415	-74.92
860.589	-31.91
860.763	31.57
860.938	-38.06
861.112	-64.68
861.286	13.14
861.46	37.72
861.634	-38.06
861.808	39.76
861.982	-140.46
862.157	-103.59
862.331	-58.54
862.505	-60.59
862.679	-62.63
862.853	-115.88
863.027	-154.79
863.201	66.39
863.375	-33.96
863.549	-36.01
863.722	-3.24
863.896	93.01
864.07	-38.06
864.244	-25.77
864.418	35.67
864.592	9.05
864.766	62.29
864.939	58.2
865.113	-117.93
865.287	19.29
865.461	-95.4
865.634	-13.48
865.808	4.95
865.982	-19.63
866.156	-85.16
866.329	-138.41
866.503	-46.25
866.676	-3.24
866.85	47.96
867.024	-33.96
867.197	43.86
867.371	31.57
867.544	37.72
867.718	-148.65
867.891	0.85
868.065	-89.26
868.238	-7.34
868.412	70.48
868.585	2.9
868.759	-52.39
868.932	-103.59
869.105	-154.79
869.279	56.15
869.452	9.05
869.625	-27.82
869.799	-7.34
869.972	-156.84
870.145	-1.19
870.319	35.67
870.492	-66.73
870.665	-19.63
870.838	-76.97
871.011	-105.64
871.185	-81.07
871.358	-66.73
871.531	78.68
871.704	-23.72
871.877	21.33
872.05	-103.59
872.223	-3.24
872.396	-7.34
872.569	-44.2
872.742	-93.35
872.915	35.67
873.088	-25.77
873.261	-62.63
873.434	23.38
873.607	-31.91
873.78	109.4
873.953	-132.26
874.126	43.86
874.299	-40.11
874.471	11.09
874.644	-36.01
874.817	37.72
874.99	88.92
875.163	-132.26
875.335	-11.43
875.508	15.19
875.681	74.58
875.853	-38.06
876.026	33.62
876.199	66.39
876.371	4.95
876.544	-97.45
876.717	-134.31
876.889	-48.3
877.062	0.85
877.234	-128.17
877.407	-124.07
877.579	-3.24
877.752	-44.2
877.924	-9.39
878.097	54.1
878.269	115.54
878.442	-1.19
878.614	15.19
878.786	-5.29
878.959	-5.29
879.131	39.76
879.303	-97.45
879.476	-85.16
879.648	101.2
879.82	-21.67
879.993	-89.26
880.165	-83.11
880.337	-70.83
880.509	-46.25
880.681	-130.22
880.854	-70.83
881.026	-13.48
881.198	113.49
881.37	-29.87
881.542	0.85
881.714	-11.43
881.886	-105.64
882.058	9.05
882.23	9.05
882.402	-56.49
882.574	7
882.746	50
882.918	64.34
883.09	80.72
883.262	-29.87
883.434	-27.82
883.606	-124.07
883.778	-15.53
883.95	60.24
884.122	27.48
884.293	60.24
884.465	66.39
884.637	68.44
884.809	-29.87
884.98	19.29
885.152	-5.29
885.324	103.25
885.496	-42.15
885.667	-11.43
885.839	-15.53
886.011	21.33
886.182	72.53
886.354	43.86
886.525	-46.25
886.697	-76.97
886.869	-52.39
887.04	-74.92
887.212	127.83
887.383	111.44
887.555	103.25
887.726	-27.82
887.897	-107.69
888.069	-58.54
888.24	-5.29
888.412	-31.91
888.583	-1.19
888.754	-31.91
888.926	-101.55
889.097	-119.98
889.268	-95.4
889.44	-21.67
889.611	-54.44
889.782	-62.63
889.953	-85.16
890.125	82.77
890.296	-72.87
890.467	-38.06
890.638	-83.11
890.809	-66.73
890.98	-40.11
891.151	-46.25
891.323	23.38
891.494	-21.67
891.665	39.76
891.836	-29.87
892.007	11.09
892.178	-13.48
892.349	25.43
892.52	-136.36
892.691	-56.49
892.862	-83.11
893.032	-85.16
893.203	-29.87
893.374	19.29
893.545	45.91
893.716	13.14
893.887	35.67
894.057	-31.91
894.228	-46.25
894.399	-44.2
894.57	88.92
894.74	-48.3
894.911	-15.53
895.082	-62.63
895.253	-91.31
895.423	15.19
895.594	33.62
895.764	47.96
895.935	-60.59
896.106	9.05
896.276	-36.01
896.447	23.38
896.617	-60.59
896.788	-95.4
896.958	-64.68
897.129	-50.35
897.299	-33.96
897.47	35.67
897.64	70.48
897.81	17.24
897.981	-17.58
898.151	-74.92
898.322	31.57
898.492	41.81
898.662	-115.88
898.832	-33.96
899.003	13.14
899.173	-58.54
899.343	-48.3
899.513	-74.92
