Data from USB4F104151__73__13-54-06-553.txt Node

Date: Thu Mar 13 13:54:06 EDT 2025
User: louis
Spectrometer: USB4F10415
Trigger mode: 4
Integration Time (sec): 1.000000E-2
Scans to average: 1
Electric dark correction enabled: true
Nonlinearity correction enabled: false
Boxcar width: 0
XAxis mode: Wavelengths
Number of Pixels in Spectrum: 3648
>>>>>Begin Spectral Data<<<<<
178.204	5.8
178.424	5.8
178.644	5.8
178.864	-88.4
179.084	-37.2
179.304	-31.06
179.524	54.95
179.744	-67.92
179.964	36.52
180.184	3.75
180.404	-24.92
180.624	-2.39
180.844	40.62
181.064	-2.39
181.283	-2.39
181.503	3.75
181.723	-8.53
181.943	5.8
182.163	57
182.383	24.23
182.602	-43.35
182.822	106.15
183.042	57
183.262	-18.77
183.482	48.81
183.701	9.9
183.921	-37.2
184.141	30.38
184.361	52.91
184.58	5.8
184.8	-49.49
185.02	61.1
185.239	159.4
185.459	42.67
185.679	83.63
185.898	-20.82
186.118	30.38
186.338	-16.73
186.557	-14.68
186.777	-22.87
186.997	65.19
187.216	77.48
187.436	-10.58
187.655	20.14
187.875	83.63
188.095	50.86
188.314	-14.68
188.534	20.14
188.753	57
188.973	52.91
189.192	61.1
189.412	46.76
189.631	-35.16
189.851	5.8
190.07	-10.58
190.29	59.05
190.509	65.19
190.729	-12.63
190.948	48.81
191.168	34.47
191.387	28.33
191.607	34.47
191.826	28.33
192.045	16.04
192.265	-14.68
192.484	50.86
192.704	83.63
192.923	32.43
193.142	57
193.362	-41.3
193.581	13.99
193.8	22.19
194.02	13.99
194.239	-31.06
194.458	-35.16
194.678	24.23
194.897	-39.25
195.116	11.95
195.335	50.86
195.555	-16.73
195.774	5.8
195.993	22.19
196.212	89.77
196.432	1.71
196.651	-12.63
196.87	24.23
197.089	36.52
197.308	-29.01
197.528	36.52
197.747	-47.44
197.966	24.23
198.185	13.99
198.404	-33.11
198.623	36.52
198.842	50.86
199.062	20.14
199.281	79.53
199.5	7.85
199.719	24.23
199.938	-6.49
200.157	93.87
200.376	67.24
200.595	65.19
200.814	9.9
201.033	20.14
201.252	46.76
201.471	-14.68
201.69	22.19
201.909	54.95
202.128	-41.3
202.347	-0.34
202.566	71.34
202.785	-29.01
203.004	-76.12
203.223	110.25
203.442	-35.16
203.661	1.71
203.879	3.75
204.098	9.9
204.317	-45.4
204.536	77.48
204.755	5.8
204.974	28.33
205.193	-20.82
205.411	-12.63
205.63	16.04
205.849	-2.39
206.068	61.1
206.287	34.47
206.505	52.91
206.724	7.85
206.943	50.86
207.162	26.28
207.381	-69.97
207.599	11.95
207.818	26.28
208.037	-47.44
208.255	32.43
208.474	5.8
208.693	-10.58
208.911	26.28
209.13	46.76
209.349	1.71
209.567	28.33
209.786	34.47
210.005	52.91
210.223	11.95
210.442	-26.96
210.661	-22.87
210.879	9.9
211.098	-104.79
211.316	85.67
211.535	18.09
211.753	-18.77
211.972	48.81
212.191	-20.82
212.409	65.19
212.628	24.23
212.846	13.99
213.065	20.14
213.283	34.47
213.502	-2.39
213.72	-18.77
213.938	63.15
214.157	18.09
214.375	3.75
214.594	97.96
214.812	-6.49
215.031	40.62
215.249	9.9
215.467	-12.63
215.686	1.71
215.904	-12.63
216.122	-10.58
216.341	34.47
216.559	-14.68
216.778	42.67
216.996	-29.01
217.214	9.9
217.432	73.39
217.651	38.57
217.869	-16.73
218.087	28.33
218.306	73.39
218.524	59.05
218.742	40.62
218.96	65.19
219.179	16.04
219.397	28.33
219.615	50.86
219.833	9.9
220.051	-4.44
220.27	13.99
220.488	38.57
220.706	-29.01
220.924	3.75
221.142	-10.58
221.36	3.75
221.578	16.04
221.796	-41.3
222.015	48.81
222.233	26.28
222.451	5.8
222.669	100.01
222.887	-8.53
223.105	1.71
223.323	7.85
223.541	-14.68
223.759	-33.11
223.977	7.85
224.195	61.1
224.413	-14.68
224.631	-31.06
224.849	-12.63
225.067	77.48
225.285	28.33
225.503	20.14
225.721	-31.06
225.939	-22.87
226.157	11.95
226.375	57
226.592	63.15
226.81	44.71
227.028	20.14
227.246	7.85
227.464	-2.39
227.682	149.16
227.9	20.14
228.117	93.87
228.335	-22.87
228.553	-41.3
228.771	40.62
228.989	-26.96
229.206	42.67
229.424	9.9
229.642	1.71
229.86	32.43
230.077	-35.16
230.295	-16.73
230.513	42.67
230.731	9.9
230.948	16.04
231.166	71.34
231.384	-14.68
231.601	20.14
231.819	-14.68
232.037	18.09
232.254	-22.87
232.472	32.43
232.689	-12.63
232.907	-0.34
233.125	-18.77
233.342	20.14
233.56	-10.58
233.777	13.99
233.995	40.62
234.213	38.57
234.43	7.85
234.648	48.81
234.865	83.63
235.083	38.57
235.3	71.34
235.518	46.76
235.735	54.95
235.953	28.33
236.17	16.04
236.388	20.14
236.605	-0.34
236.822	93.87
237.04	48.81
237.257	46.76
237.475	9.9
237.692	38.57
237.909	-35.16
238.127	-24.92
238.344	-6.49
238.562	30.38
238.779	11.95
238.996	-12.63
239.214	44.71
239.431	16.04
239.648	-26.96
239.865	-29.01
240.083	11.95
240.3	-24.92
240.517	16.04
240.735	54.95
240.952	3.75
241.169	77.48
241.386	5.8
241.603	1.71
241.821	-4.44
242.038	-2.39
242.255	48.81
242.472	-35.16
242.689	59.05
242.907	50.86
243.124	24.23
243.341	-4.44
243.558	-65.88
243.775	-10.58
243.992	-20.82
244.209	-55.64
244.426	85.67
244.643	59.05
244.86	-8.53
245.078	-24.92
245.295	65.19
245.512	28.33
245.729	5.8
245.946	30.38
246.163	5.8
246.38	1.71
246.597	7.85
246.814	65.19
247.031	-2.39
247.248	67.24
247.464	-59.73
247.681	26.28
247.898	59.05
248.115	-35.16
248.332	13.99
248.549	-12.63
248.766	34.47
248.983	50.86
249.2	16.04
249.417	-12.63
249.633	9.9
249.85	24.23
250.067	-10.58
250.284	-14.68
250.501	16.04
250.717	50.86
250.934	-29.01
251.151	28.33
251.368	-24.92
251.585	57
251.801	59.05
252.018	54.95
252.235	85.67
252.451	1.71
252.668	-31.06
252.885	-37.2
253.102	-12.63
253.318	-6.49
253.535	-0.34
253.752	-22.87
253.968	71.34
254.185	50.86
254.401	50.86
254.618	36.52
254.835	57
255.051	32.43
255.268	-12.63
255.484	22.19
255.701	16.04
255.917	54.95
256.134	-49.49
256.351	-16.73
256.567	42.67
256.784	-4.44
257	-29.01
257.217	24.23
257.433	-18.77
257.65	-16.73
257.866	48.81
258.082	5.8
258.299	32.43
258.515	-14.68
258.732	-26.96
258.948	-33.11
259.165	67.24
259.381	-82.26
259.597	36.52
259.814	-20.82
260.03	30.38
260.246	32.43
260.463	28.33
260.679	71.34
260.895	-22.87
261.112	81.58
261.328	48.81
261.544	50.86
261.761	54.95
261.977	16.04
262.193	-37.2
262.409	28.33
262.626	1.71
262.842	5.8
263.058	-0.34
263.274	57
263.49	22.19
263.707	-4.44
263.923	-6.49
264.139	-18.77
264.355	5.8
264.571	71.34
264.787	40.62
265.004	-72.02
265.22	34.47
265.436	71.34
265.652	-41.3
265.868	-20.82
266.084	-39.25
266.3	-49.49
266.516	48.81
266.732	71.34
266.948	38.57
267.164	-12.63
267.38	40.62
267.596	30.38
267.812	-45.4
268.028	-16.73
268.244	52.91
268.46	40.62
268.676	97.96
268.892	48.81
269.108	-31.06
269.324	18.09
269.54	18.09
269.756	30.38
269.972	54.95
270.188	-55.64
270.403	-14.68
270.619	13.99
270.835	-0.34
271.051	11.95
271.267	18.09
271.483	77.48
271.698	-8.53
271.914	32.43
272.13	9.9
272.346	20.14
272.562	71.34
272.777	13.99
272.993	30.38
273.209	42.67
273.425	75.43
273.64	42.67
273.856	22.19
274.072	46.76
274.287	5.8
274.503	7.85
274.719	-26.96
274.934	24.23
275.15	-35.16
275.366	-18.77
275.581	-20.82
275.797	-65.88
276.012	30.38
276.228	54.95
276.444	40.62
276.659	42.67
276.875	-6.49
277.09	34.47
277.306	91.82
277.521	-6.49
277.737	1.71
277.952	13.99
278.168	16.04
278.383	104.11
278.599	-6.49
278.814	24.23
279.03	52.91
279.245	79.53
279.461	13.99
279.676	3.75
279.892	65.19
280.107	104.11
280.322	-31.06
280.538	11.95
280.753	24.23
280.969	-6.49
281.184	59.05
281.399	-35.16
281.615	-6.49
281.83	-31.06
282.045	5.8
282.26	36.52
282.476	-16.73
282.691	5.8
282.906	-10.58
283.122	81.58
283.337	59.05
283.552	-22.87
283.767	11.95
283.983	93.87
284.198	61.1
284.413	126.63
284.628	1.71
284.843	-31.06
285.058	24.23
285.274	22.19
285.489	-6.49
285.704	5.8
285.919	40.62
286.134	38.57
286.349	-33.11
286.564	54.95
286.779	-18.77
286.995	3.75
287.21	44.71
287.425	42.67
287.64	5.8
287.855	5.8
288.07	-12.63
288.285	57
288.5	-4.44
288.715	32.43
288.93	-6.49
289.145	42.67
289.36	54.95
289.575	46.76
289.79	-14.68
290.004	32.43
290.219	7.85
290.434	7.85
290.649	52.91
290.864	24.23
291.079	48.81
291.294	20.14
291.509	40.62
291.724	3.75
291.938	77.48
292.153	16.04
292.368	1.71
292.583	54.95
292.798	40.62
293.012	85.67
293.227	-24.92
293.442	42.67
293.657	5.8
293.871	-41.3
294.086	-8.53
294.301	34.47
294.516	36.52
294.73	46.76
294.945	-49.49
295.16	30.38
295.374	46.76
295.589	59.05
295.804	-20.82
296.018	-2.39
296.233	-84.31
296.447	-8.53
296.662	-41.3
296.877	54.95
297.091	-12.63
297.306	-35.16
297.52	38.57
297.735	34.47
297.949	13.99
298.164	32.43
298.378	-4.44
298.593	114.34
298.807	75.43
299.022	-10.58
299.236	22.19
299.451	-18.77
299.665	9.9
299.88	30.38
300.094	59.05
300.309	20.14
300.523	-39.25
300.737	-18.77
300.952	59.05
301.166	-10.58
301.381	-53.59
301.595	-0.34
301.809	22.19
302.024	38.57
302.238	52.91
302.452	54.95
302.667	-14.68
302.881	13.99
303.095	67.24
303.309	67.24
303.524	22.19
303.738	3.75
303.952	40.62
304.166	3.75
304.381	-4.44
304.595	-8.53
304.809	-0.34
305.023	11.95
305.237	13.99
305.452	20.14
305.666	-6.49
305.88	34.47
306.094	81.58
306.308	20.14
306.522	-55.64
306.736	75.43
306.95	16.04
307.164	-10.58
307.379	61.1
307.593	52.91
307.807	9.9
308.021	24.23
308.235	-63.83
308.449	-55.64
308.663	18.09
308.877	16.04
309.091	-67.92
309.305	26.28
309.519	22.19
309.733	11.95
309.947	77.48
310.161	-4.44
310.374	40.62
310.588	36.52
310.802	-4.44
311.016	22.19
311.23	-18.77
311.444	28.33
311.658	18.09
311.872	24.23
312.085	26.28
312.299	-2.39
312.513	7.85
312.727	75.43
312.941	-14.68
313.154	-22.87
313.368	30.38
313.582	-22.87
313.796	44.71
314.009	22.19
314.223	40.62
314.437	26.28
314.651	65.19
314.864	40.62
315.078	73.39
315.292	61.1
315.505	-16.73
315.719	40.62
315.933	-24.92
316.146	28.33
316.36	-35.16
316.573	1.71
316.787	54.95
317.001	-31.06
317.214	26.28
317.428	3.75
317.641	-47.44
317.855	1.71
318.068	5.8
318.282	13.99
318.495	1.71
318.709	11.95
318.922	13.99
319.136	-4.44
319.349	50.86
319.563	61.1
319.776	34.47
319.99	38.57
320.203	69.29
320.417	36.52
320.63	-8.53
320.843	-31.06
321.057	-0.34
321.27	9.9
321.483	-10.58
321.697	48.81
321.91	-29.01
322.124	32.43
322.337	22.19
322.55	77.48
322.763	24.23
322.977	30.38
323.19	-20.82
323.403	40.62
323.617	22.19
323.83	30.38
324.043	-14.68
324.256	30.38
324.469	-2.39
324.683	42.67
324.896	75.43
325.109	91.82
325.322	-18.77
325.535	52.91
325.748	32.43
325.962	65.19
326.175	-6.49
326.388	40.62
326.601	-49.49
326.814	18.09
327.027	20.14
327.24	-8.53
327.453	42.67
327.666	22.19
327.879	54.95
328.092	63.15
328.305	-10.58
328.518	24.23
328.731	-33.11
328.944	24.23
329.157	26.28
329.37	-4.44
329.583	52.91
329.796	50.86
330.009	65.19
330.222	50.86
330.435	13.99
330.648	18.09
330.861	36.52
331.073	-39.25
331.286	11.95
331.499	-6.49
331.712	34.47
331.925	20.14
332.138	61.1
332.35	48.81
332.563	-10.58
332.776	30.38
332.989	-35.16
333.202	44.71
333.414	13.99
333.627	59.05
333.84	11.95
334.053	95.91
334.265	-2.39
334.478	-8.53
334.691	73.39
334.903	1.71
335.116	-33.11
335.329	3.75
335.541	11.95
335.754	91.82
335.966	11.95
336.179	32.43
336.392	-2.39
336.604	54.95
336.817	38.57
337.029	5.8
337.242	20.14
337.454	30.38
337.667	30.38
337.88	34.47
338.092	7.85
338.305	-20.82
338.517	-37.2
338.729	77.48
338.942	-8.53
339.154	50.86
339.367	24.23
339.579	-14.68
339.792	-8.53
340.004	48.81
340.217	40.62
340.429	38.57
340.641	42.67
340.854	85.67
341.066	-2.39
341.278	9.9
341.491	44.71
341.703	44.71
341.915	65.19
342.128	-20.82
342.34	63.15
342.552	-39.25
342.764	9.9
342.977	-4.44
343.189	16.04
343.401	22.19
343.613	1.71
343.826	40.62
344.038	28.33
344.25	30.38
344.462	-26.96
344.674	46.76
344.886	20.14
345.099	32.43
345.311	-16.73
345.523	5.8
345.735	13.99
345.947	36.52
346.159	50.86
346.371	26.28
346.583	9.9
346.795	44.71
347.007	85.67
347.219	50.86
347.431	24.23
347.643	54.95
347.855	42.67
348.067	-6.49
348.279	-18.77
348.491	5.8
348.703	54.95
348.915	46.76
349.127	59.05
349.339	-12.63
349.551	3.75
349.763	22.19
349.975	54.95
350.187	57
350.399	3.75
350.61	-12.63
350.822	3.75
351.034	46.76
351.246	-72.02
351.458	3.75
351.669	38.57
351.881	69.29
352.093	79.53
352.305	65.19
352.517	-47.44
352.728	22.19
352.94	-2.39
353.152	-33.11
353.363	-29.01
353.575	93.87
353.787	63.15
353.999	52.91
354.21	112.3
354.422	13.99
354.633	-4.44
354.845	54.95
355.057	42.67
355.268	46.76
355.48	57
355.692	85.67
355.903	-26.96
356.115	85.67
356.326	26.28
356.538	34.47
356.749	34.47
356.961	24.23
357.172	-16.73
357.384	22.19
357.595	67.24
357.807	44.71
358.018	102.06
358.23	28.33
358.441	9.9
358.653	44.71
358.864	73.39
359.075	-16.73
359.287	-14.68
359.498	42.67
359.709	75.43
359.921	-22.87
360.132	16.04
360.344	100.01
360.555	22.19
360.766	-22.87
360.977	24.23
361.189	26.28
361.4	-29.01
361.611	102.06
361.823	57
362.034	122.54
362.245	20.14
362.456	16.04
362.667	13.99
362.879	22.19
363.09	44.71
363.301	61.1
363.512	22.19
363.723	97.96
363.935	26.28
364.146	79.53
364.357	-6.49
364.568	-37.2
364.779	91.82
364.99	71.34
365.201	77.48
365.412	73.39
365.623	67.24
365.834	65.19
366.045	87.72
366.256	46.76
366.467	-47.44
366.678	28.33
366.889	16.04
367.1	30.38
367.311	87.72
367.522	-37.2
367.733	30.38
367.944	57
368.155	24.23
368.366	22.19
368.577	52.91
368.788	48.81
368.999	-0.34
369.209	30.38
369.42	46.76
369.631	61.1
369.842	-4.44
370.053	-33.11
370.264	44.71
370.474	-10.58
370.685	59.05
370.896	-14.68
371.107	13.99
371.317	100.01
371.528	18.09
371.739	87.72
371.95	67.24
372.16	46.76
372.371	28.33
372.582	81.58
372.792	102.06
373.003	112.3
373.214	65.19
373.424	54.95
373.635	28.33
373.846	59.05
374.056	-16.73
374.267	79.53
374.477	30.38
374.688	-2.39
374.898	11.95
375.109	9.9
375.319	16.04
375.53	75.43
375.74	38.57
375.951	38.57
376.161	16.04
376.372	57
376.582	61.1
376.793	65.19
377.003	102.06
377.214	48.81
377.424	52.91
377.635	42.67
377.845	89.77
378.055	34.47
378.266	75.43
378.476	7.85
378.686	-4.44
378.897	57
379.107	100.01
379.317	34.47
379.528	48.81
379.738	-0.34
379.948	108.2
380.158	44.71
380.369	79.53
380.579	9.9
380.789	-8.53
380.999	-18.77
381.21	59.05
381.42	36.52
381.63	32.43
381.84	118.44
382.05	-2.39
382.261	77.48
382.471	63.15
382.681	126.63
382.891	28.33
383.101	-49.49
383.311	73.39
383.521	52.91
383.731	7.85
383.941	112.3
384.151	36.52
384.361	87.72
384.571	73.39
384.781	-16.73
384.991	73.39
385.201	71.34
385.411	-14.68
385.621	69.29
385.831	52.91
386.041	44.71
386.251	79.53
386.461	54.95
386.671	-10.58
386.881	73.39
387.091	5.8
387.301	77.48
387.511	44.71
387.72	97.96
387.93	-35.16
388.14	42.67
388.35	50.86
388.56	73.39
388.769	44.71
388.979	54.95
389.189	42.67
389.399	18.09
389.609	13.99
389.818	63.15
390.028	69.29
390.238	36.52
390.447	-37.2
390.657	87.72
390.867	16.04
391.076	-22.87
391.286	1.71
391.496	36.52
391.705	73.39
391.915	89.77
392.125	30.38
392.334	-14.68
392.544	32.43
392.753	20.14
392.963	-20.82
393.172	57
393.382	11.95
393.591	71.34
393.801	40.62
394.01	46.76
394.22	13.99
394.429	65.19
394.639	77.48
394.848	69.29
395.058	48.81
395.267	63.15
395.477	-43.35
395.686	91.82
395.895	46.76
396.105	81.58
396.314	130.73
396.524	97.96
396.733	32.43
396.942	-22.87
397.152	28.33
397.361	5.8
397.57	46.76
397.78	67.24
397.989	13.99
398.198	126.63
398.407	67.24
398.617	46.76
398.826	-18.77
399.035	77.48
399.244	120.49
399.453	83.63
399.663	65.19
399.872	77.48
400.081	44.71
400.29	22.19
400.499	28.33
400.708	122.54
400.917	26.28
401.127	61.1
401.336	89.77
401.545	89.77
401.754	63.15
401.963	100.01
402.172	112.3
402.381	100.01
402.59	87.72
402.799	61.1
403.008	87.72
403.217	116.39
403.426	93.87
403.635	110.25
403.844	50.86
404.053	65.19
404.262	69.29
404.471	83.63
404.68	116.39
404.888	69.29
405.097	91.82
405.306	44.71
405.515	87.72
405.724	106.15
405.933	114.34
406.142	173.74
406.35	188.07
406.559	106.15
406.768	108.2
406.977	124.58
407.185	130.73
407.394	79.53
407.603	188.07
407.812	147.11
408.02	165.54
408.229	233.13
408.438	122.54
408.646	155.3
408.855	202.41
409.064	188.07
409.272	261.8
409.481	153.26
409.69	202.41
409.898	159.4
410.107	196.26
410.315	169.64
410.524	190.12
410.733	229.03
410.941	169.64
411.15	204.46
411.358	257.7
411.567	237.22
411.775	259.75
411.984	337.57
412.192	272.04
412.401	290.47
412.609	347.81
412.818	298.66
413.026	315.05
413.234	364.2
413.443	353.96
413.651	341.67
413.86	300.71
414.068	399.01
414.276	437.92
414.485	347.81
414.693	370.34
414.901	458.4
415.11	454.31
415.318	503.46
415.526	530.08
415.734	491.17
415.943	435.88
416.151	513.7
416.359	556.71
416.567	521.89
416.776	540.32
416.984	603.81
417.192	597.67
417.4	560.8
417.608	630.43
417.817	644.77
418.025	714.4
418.233	728.74
418.441	706.21
418.649	691.87
418.857	816.8
419.065	781.98
419.273	806.56
419.481	822.94
419.689	925.34
419.897	935.58
420.105	931.48
420.313	954.01
420.521	1052.31
420.729	1042.07
420.937	1083.03
421.145	1048.22
421.353	1193.62
421.561	1234.58
421.769	1277.59
421.977	1203.86
422.185	1253.02
422.393	1363.61
422.601	1416.85
422.809	1410.71
423.017	1504.92
423.224	1490.58
423.432	1482.39
423.64	1474.2
423.848	1746.58
424.056	1676.95
424.263	1724.05
424.471	1683.09
424.679	1824.4
424.887	1963.66
425.094	1982.09
425.302	2045.58
425.51	2100.87
425.718	2188.94
425.925	2143.88
426.133	2221.7
426.341	2346.63
426.548	2416.26
426.756	2561.67
426.964	2432.65
427.171	2533
427.379	2563.72
427.586	2745.98
427.794	2875.01
428.001	2903.68
428.209	3128.95
428.417	3014.27
428.624	3180.15
428.832	3149.43
429.039	3194.49
429.247	3151.48
429.454	3499.64
429.662	3751.54
429.869	3550.84
430.076	3802.74
430.284	3663.47
430.491	3731.06
430.699	4019.82
430.906	3919.47
431.114	4150.89
431.321	4265.58
431.528	4296.3
431.736	4353.64
431.943	4726.37
432.15	4732.51
432.358	4736.61
432.565	4763.23
432.772	4937.31
432.979	5158.49
433.187	5160.54
433.394	5217.88
433.601	5422.68
433.808	5555.8
434.016	5580.37
434.223	5832.27
434.43	6082.13
434.637	6088.27
434.844	6420.04
435.052	6573.64
435.259	6510.15
435.466	6577.73
435.673	6608.45
435.88	6805.06
436.087	7212.6
436.294	7482.94
436.501	7239.23
436.708	7294.52
436.915	7607.86
437.122	7839.28
437.329	7837.24
437.537	8062.51
437.743	8154.67
437.95	8130.09
438.157	8572.46
438.364	8875.56
438.571	8736.29
438.778	8797.73
438.985	9829.91
439.192	9293.34
439.399	9707.03
439.606	9184.8
439.813	9807.38
440.02	10804.74
440.227	10481.16
440.433	10321.42
440.64	10642.95
440.847	10423.82
441.054	10817.03
441.261	11517.43
441.467	11615.74
441.674	11636.22
441.881	12060.15
442.088	11945.46
442.294	12049.91
442.501	12035.57
442.708	12602.86
442.914	12875.24
443.121	13401.57
443.328	13108.71
443.534	14087.64
443.741	13759.96
443.948	13506.01
444.154	14435.79
444.361	14349.78
444.568	14652.88
444.774	14331.34
444.981	14560.72
445.187	15144.39
445.394	15809.98
445.6	15556.03
445.807	16932.26
446.013	16418.22
446.22	16491.95
446.426	17364.39
446.633	17145.25
446.839	17649.05
447.046	17141.16
447.252	18238.87
447.459	18163.09
447.665	18226.58
447.871	18902.41
448.078	19449.22
448.284	18910.6
448.491	19301.76
448.697	20102.52
448.903	20544.88
449.11	20301.17
449.316	20145.53
449.522	20465.01
449.728	20841.84
449.935	21167.46
450.141	21116.26
450.347	21677.41
450.553	20718.96
450.76	21126.5
450.966	22056.28
451.172	21640.54
451.378	22158.68
451.584	21628.26
451.791	22076.76
451.997	22160.73
452.203	22500.69
452.409	22629.71
452.615	22433.11
452.821	21626.21
453.027	21419.36
453.233	22381.91
453.44	21409.12
453.646	21771.61
453.852	21794.14
454.058	21976.41
454.264	21456.23
454.47	21708.13
454.676	21398.88
454.882	22152.54
455.088	20227.45
455.294	20223.35
455.5	20895.08
455.705	20944.24
455.911	20194.68
456.117	19801.47
456.323	19398.02
456.529	18539.92
456.735	19375.49
456.941	18382.23
457.147	18251.16
457.352	17632.67
457.558	17683.87
457.764	17612.19
457.97	17206.69
458.176	17139.11
458.381	16852.39
458.587	16006.58
458.793	16037.3
458.999	15072.71
459.204	16367.02
459.41	15885.75
459.616	14867.91
459.821	14878.15
460.027	14736.84
460.233	14568.91
460.438	13800.92
460.644	13714.91
460.85	13405.66
461.055	13131.23
461.261	13235.68
461.466	11945.46
461.672	11820.53
461.878	12574.19
462.083	11689.46
462.289	11308.54
462.494	11429.37
462.7	10937.86
462.905	10679.82
463.111	11001.35
463.316	11040.26
463.522	10753.54
463.727	10685.96
463.932	10710.54
464.138	10884.61
464.343	10874.37
464.549	10495.5
464.754	10774.02
464.959	10681.86
465.165	10608.14
465.37	10038.8
465.575	9807.38
465.781	10182.16
465.986	10272.27
466.191	9899.54
466.397	9639.45
466.602	9295.39
466.807	9649.69
467.012	9598.49
467.218	9612.82
467.423	9328.16
467.628	9375.26
467.833	9936.4
468.038	9813.52
468.244	9408.03
468.449	9741.85
468.654	9485.85
468.859	9045.54
469.064	9170.46
469.269	9096.74
469.474	8771.11
469.679	9219.61
469.885	8814.12
470.09	9066.02
470.295	8969.76
470.5	8676.9
470.705	8842.79
470.91	8597.03
471.115	8519.21
471.32	8476.2
471.525	8494.63
471.73	8318.51
471.935	8363.56
472.139	8031.79
472.344	8128.05
472.549	8046.13
472.754	7956.02
472.959	7734.84
473.164	7622.2
473.369	7497.27
473.574	7765.56
473.778	7538.23
473.983	7630.39
474.188	7687.73
474.393	7388.73
474.598	7392.83
474.802	7333.43
475.007	7294.52
475.212	7200.32
475.417	7042.62
475.621	6755.91
475.826	6870.59
476.031	6745.67
476.235	6749.76
476.44	6905.41
476.645	6753.86
476.849	6659.65
477.054	6678.08
477.259	6415.94
477.463	6524.49
477.668	6407.75
477.872	6504.01
478.077	6241.87
478.282	6186.57
478.486	6207.05
478.691	6055.5
478.895	6170.19
479.1	6098.51
479.304	6053.45
479.509	5979.73
479.713	6039.12
479.918	5795.41
480.122	5602.9
480.326	5785.17
480.531	5813.84
480.735	5832.27
480.94	5693.01
481.144	5826.13
481.348	5625.43
481.553	5750.35
481.757	5510.74
481.961	5611.09
482.166	5779.03
482.37	5727.83
482.574	5754.45
482.778	5598.81
482.983	5852.75
483.187	5527.13
483.391	5467.74
483.595	5492.31
483.8	5498.45
484.004	5592.66
484.208	5535.32
484.412	5516.89
484.616	5680.72
484.821	5666.39
485.025	5621.33
485.229	5432.92
485.433	5586.52
485.637	5643.86
485.841	5639.76
486.045	5443.16
486.249	5787.22
486.453	5533.27
486.657	5615.19
486.861	5650
487.065	5488.21
487.269	5512.79
487.473	5428.82
487.677	5750.35
487.881	5652.05
488.085	5590.61
488.289	5660.24
488.493	5500.5
488.697	5578.33
488.901	5629.52
489.105	5643.86
489.309	5725.78
489.512	5666.39
489.716	5611.09
489.92	5676.63
490.124	5670.48
490.328	5736.02
490.531	5852.75
490.735	5711.44
490.939	5946.96
491.143	5795.41
491.346	5637.72
491.55	5785.17
491.754	5998.16
491.958	5981.78
492.161	5922.38
492.365	5934.67
492.569	5983.82
492.772	5963.34
492.976	5916.24
493.18	5965.39
493.383	5979.73
493.587	6082.13
493.79	6035.02
493.994	6141.52
494.197	6192.72
494.401	6229.58
494.605	6166.09
494.808	6385.23
495.012	6395.47
495.215	6331.98
495.419	6385.23
495.622	6366.79
495.825	6643.27
496.029	6686.28
496.232	6643.27
496.436	6907.46
496.639	6737.48
496.843	6792.77
497.046	6954.56
497.249	7116.35
497.453	6841.92
497.656	7194.17
497.859	7167.55
498.063	7470.65
498.266	7304.76
498.469	7470.65
498.673	7605.81
498.876	7611.96
499.079	7685.69
499.282	7679.54
499.485	7956.02
499.689	8003.12
499.892	7833.14
500.095	8177.2
500.298	8246.83
500.501	8347.18
500.705	8361.52
500.908	8490.54
501.111	8498.73
501.314	8715.81
501.517	8855.08
501.72	8922.66
501.923	8787.49
502.126	9117.22
502.329	9088.54
502.532	9391.64
502.735	9205.28
502.938	9625.11
503.141	9584.15
503.344	9750.04
503.547	9840.15
503.75	10104.34
503.953	10042.9
504.156	10124.82
504.359	10176.02
504.562	10411.53
504.765	10642.95
504.968	10550.79
505.17	10810.89
505.373	10731.01
505.576	11001.35
505.779	11054.59
505.982	11320.83
506.185	11519.48
506.387	11585.02
506.59	11503.1
506.793	11957.75
506.996	11978.23
507.198	12207.6
507.401	12137.97
507.604	12252.66
507.807	12713.45
508.009	12647.91
508.212	12600.81
508.415	13153.76
508.617	12951.01
508.82	13338.08
509.022	13241.82
509.225	13469.15
509.428	13884.89
509.63	13956.57
509.833	14087.64
510.035	14609.87
510.238	14155.22
510.44	14573
510.643	15035.85
510.845	15072.71
511.048	14962.12
511.25	15265.22
511.453	15416.77
511.655	15932.86
511.858	15832.51
512.06	16012.73
512.262	16291.25
512.465	16174.52
512.667	16291.25
512.87	16848.3
513.072	16534.96
513.274	17257.89
513.477	17153.44
513.679	17405.35
513.881	17780.12
514.084	17831.32
514.286	17917.34
514.488	18064.79
514.69	18797.96
514.893	18582.93
515.095	18814.35
515.297	19025.29
515.499	18994.57
515.701	19363.2
515.904	19508.61
516.106	19811.71
516.308	19922.3
516.51	20405.62
516.712	20309.36
516.914	20755.82
517.116	20921.71
517.318	20819.31
517.52	21120.36
517.722	21484.9
517.925	21282.15
518.127	21964.12
518.329	22209.88
518.531	22179.16
518.733	22426.96
518.935	22951.24
519.136	22791.5
519.338	23260.49
519.54	23510.34
519.742	23518.53
519.944	23856.45
520.146	23764.29
520.348	24218.94
520.55	24063.29
520.752	24345.91
520.954	25013.55
521.155	24773.94
521.357	25361.7
521.559	25629.99
521.761	25775.39
521.963	26033.44
522.164	26117.4
522.366	26111.26
522.568	26539.29
522.77	26877.2
522.971	27135.24
523.173	27000.08
523.375	27182.35
523.576	27241.74
523.778	27591.94
523.98	27763.97
524.181	27735.3
524.383	27972.86
524.584	28740.85
524.786	28566.77
524.988	28695.8
525.189	28843.25
525.391	29162.73
525.592	28976.37
525.794	29222.12
525.995	29336.81
526.197	29392.11
526.398	29484.26
526.6	29646.05
526.801	29971.68
527.003	30344.41
527.204	30102.75
527.406	30233.82
527.607	30385.37
527.808	30624.98
528.01	30508.25
528.211	30723.29
528.412	31067.34
528.614	31157.46
528.815	31040.72
529.016	31227.09
529.218	31280.33
529.419	31175.89
529.62	31538.38
529.822	31261.9
530.023	31777.99
530.224	31982.79
530.425	31538.38
530.626	31493.32
530.828	31370.44
531.029	32140.48
531.23	32091.33
531.431	31720.65
531.632	31642.82
531.833	32107.71
532.035	32425.15
532.236	32406.72
532.437	32605.37
532.638	32048.32
532.839	32251.07
533.04	32806.07
533.241	32087.23
533.442	32783.54
533.643	32562.36
533.844	32212.16
534.045	32670.9
534.246	32259.26
534.447	32912.56
534.648	32193.73
534.849	32761.01
535.05	32511.16
535.251	32912.56
535.451	32429.24
535.652	32521.4
535.853	32582.84
536.054	32773.3
536.255	32939.19
536.456	32605.37
536.657	32873.65
536.857	32779.45
537.058	32359.61
537.259	33043.63
537.46	32836.79
537.66	32982.2
537.861	32992.44
538.062	32621.75
538.263	32818.36
538.463	32423.1
538.664	32623.8
538.865	33244.34
539.065	33172.66
539.266	32380.09
539.466	32998.58
539.667	32183.49
539.868	32967.86
540.068	32785.59
540.269	32742.58
540.469	32941.24
540.67	32584.89
540.87	32634.04
541.071	32773.3
541.271	33170.61
541.472	32726.2
541.672	32945.33
541.873	32668.86
542.073	32163.01
542.274	33060.02
542.474	32556.22
542.675	32621.75
542.875	33066.16
543.075	32664.76
543.276	32670.9
543.476	32849.08
543.676	32537.79
543.877	32816.31
544.077	32824.5
544.277	32892.08
544.478	32660.66
544.678	32715.96
544.878	32681.14
545.078	32806.07
545.279	32699.58
545.479	32576.7
545.679	32902.32
545.879	32646.33
546.079	32758.97
546.28	32720.06
546.48	32593.08
546.68	32902.32
546.88	32732.34
547.08	32892.08
547.28	32777.4
547.48	32343.23
547.68	32593.08
547.88	32476.35
548.081	32863.41
548.281	32754.87
548.481	32699.58
548.681	33008.82
548.881	32363.71
549.081	32746.68
549.28	32351.42
549.48	32775.35
549.68	32675
549.88	32900.28
550.08	32208.06
550.28	32859.32
550.48	32273.6
550.68	32894.13
550.88	32332.99
551.08	32748.73
551.279	32638.14
551.479	32132.29
551.679	32644.28
551.879	32687.29
552.079	32695.48
552.278	32556.22
552.478	32124.1
552.678	32314.56
552.878	32734.39
553.077	32715.96
553.277	32101.57
553.477	32535.74
553.676	32480.44
553.876	32179.39
554.076	32519.35
554.275	32261.31
554.475	31814.85
554.674	32300.22
554.874	32552.12
555.074	32179.39
555.273	32249.02
555.473	32464.06
555.672	31847.62
555.872	32054.47
556.071	32042.18
556.271	32502.97
556.47	32195.78
556.67	32033.99
556.869	32070.85
557.068	31933.64
557.268	31569.1
557.467	31554.76
557.667	31986.88
557.866	31958.21
558.065	31702.21
558.265	31397.07
558.464	31372.49
558.663	31800.52
558.863	31151.31
559.062	31902.92
559.261	31446.22
559.461	31612.1
559.66	31028.43
559.859	31423.69
560.058	31106.26
560.258	31239.37
560.457	31108.3
560.656	31331.53
560.855	31163.6
561.054	31495.37
561.253	30956.75
561.453	31042.77
561.652	31128.78
561.851	31192.27
562.05	30745.81
562.249	30885.08
562.448	31202.51
562.647	30792.92
562.846	30833.88
563.045	30627.03
563.244	30334.17
563.443	30774.49
563.642	30080.22
563.841	30612.7
564.04	30115.04
564.239	30866.64
564.438	30112.99
564.637	30149.85
564.836	30301.4
565.035	29994.21
565.234	30213.34
565.432	29885.67
565.631	30012.64
565.83	29945.06
566.029	30057.7
566.228	29623.53
566.427	29400.3
566.625	29570.28
566.824	29187.31
567.023	29730.02
567.222	29250.8
567.42	29431.02
567.619	29302
567.818	28947.7
568.016	29168.88
568.215	29066.48
568.414	28818.67
568.612	29443.31
568.811	28632.31
569.01	28878.07
569.208	28671.22
569.407	29218.03
569.605	28564.73
569.804	28845.3
570.002	28243.2
570.201	28482.81
570.4	27938.05
570.598	28093.69
570.797	27968.77
570.995	28022.02
571.193	28101.89
571.392	28060.93
571.59	27677.96
571.789	27811.07
571.987	27751.68
572.186	27591.94
572.384	27809.03
572.582	27473.16
572.781	27485.45
572.979	26934.54
573.177	27247.88
573.376	27047.18
573.574	27233.55
573.772	27122.96
573.971	26793.23
574.169	26559.77
574.367	26555.67
574.565	26989.84
574.763	26203.42
574.962	26457.37
575.16	26273.05
575.358	26451.22
575.556	26033.44
575.754	26440.98
575.952	26025.25
576.151	26271
576.349	25625.89
576.547	25900.32
576.745	25820.45
576.943	25627.94
577.141	25617.7
577.339	25748.77
577.537	25539.88
577.735	25451.81
577.933	25384.23
578.131	25369.9
578.329	25214.25
578.527	25453.86
578.725	25056.56
578.923	25249.07
579.121	24726.83
579.319	24724.79
579.516	25021.74
579.714	24433.97
579.912	24657.2
580.11	24261.94
580.308	24554.8
580.506	24350.01
580.704	23985.47
580.901	24282.42
581.099	24511.8
581.297	24247.61
581.495	24124.73
581.692	24194.36
581.89	23672.13
582.088	24165.69
582.285	23856.45
582.483	24014.14
582.681	23889.21
582.878	23438.66
583.076	23633.22
583.274	23711.04
583.471	23391.56
583.669	23172.43
583.866	23379.27
584.064	23557.44
584.262	22941
584.459	23256.39
584.657	22910.29
584.854	23405.89
585.052	22449.49
585.249	22957.39
585.447	22949.2
585.644	22717.78
585.841	22635.86
586.039	22697.3
586.236	22138.2
586.434	22191.45
586.631	22029.66
586.828	22383.96
587.026	22185.3
587.223	22060.38
587.42	22015.32
587.618	22013.27
587.815	21783.9
588.012	21714.27
588.21	21953.88
588.407	22048.09
588.604	21806.43
588.801	21335.4
588.999	21583.2
589.196	21734.75
589.393	21521.76
589.59	21343.59
589.787	21402.98
589.984	21286.25
590.182	21083.5
590.379	21239.14
590.576	20931.95
590.773	20872.56
590.97	20624.75
591.167	21007.72
591.364	20725.1
591.561	20733.29
591.758	20305.27
591.955	20632.94
592.152	20379
592.349	20456.82
592.546	20360.56
592.743	20571.5
592.94	20249.97
593.137	20151.67
593.334	20272.5
593.531	20032.89
593.727	20194.68
593.924	20063.61
594.121	19762.56
594.318	19987.83
594.515	19316.1
594.712	20127.1
594.908	19584.38
595.105	20036.98
595.302	19631.49
595.499	19549.57
595.696	19414.4
595.892	19273.09
596.089	19604.86
596.286	19320.2
596.482	19244.42
596.679	19195.27
596.876	19441.03
597.072	19088.78
597.269	19363.2
597.466	18886.03
597.662	19019.14
597.859	18789.77
598.055	18955.66
598.252	18662.8
598.448	18701.71
598.645	18634.13
598.841	18601.36
599.038	18423.19
599.234	18744.72
599.431	18441.62
599.627	18322.84
599.824	18347.41
600.02	18445.71
600.217	18247.06
600.413	18085.27
600.609	18070.93
600.806	18009.5
601.002	18093.46
601.198	17882.52
601.395	18101.65
601.591	17632.67
601.787	17608.09
601.984	17720.73
602.18	17880.47
602.376	17683.87
602.572	17472.93
602.769	17200.55
602.965	17153.44
603.161	17466.78
603.357	17208.74
603.553	17018.28
603.75	17331.62
603.946	16954.79
604.142	17139.11
604.338	16872.87
604.534	16887.21
604.73	16702.89
604.926	16790.95
605.122	16981.42
605.318	16598.45
605.514	16672.17
605.71	16627.12
605.906	16786.86
606.102	16614.83
606.298	16672.17
606.494	16467.38
606.69	16293.3
606.886	16434.61
607.082	16158.13
607.278	16205.24
607.474	16168.37
607.67	16256.43
607.866	15984.05
608.062	16113.08
608.257	15807.93
608.453	16108.98
608.649	15900.09
608.845	15910.33
609.041	16018.87
609.236	15627.71
609.432	15617.47
609.628	15926.71
609.824	15635.9
610.019	15502.78
610.215	15402.43
610.411	15547.84
610.606	15277.51
610.802	15652.28
610.998	15467.97
611.193	15201.73
611.389	15441.34
611.584	15211.97
611.78	15107.52
611.976	15166.92
612.171	15328.7
612.367	15072.71
612.562	15093.19
612.758	14742.99
612.953	14775.75
613.149	14996.93
613.344	14960.07
613.539	15142.34
613.735	14824.9
613.93	14882.25
614.126	14734.79
614.321	14706.12
614.517	14847.43
614.712	14656.97
614.907	14699.98
615.103	14747.08
615.298	14446.03
615.493	14712.27
615.688	14216.66
615.884	14415.31
616.079	14347.73
616.274	14433.74
616.47	14372.3
616.665	14290.38
616.86	14321.1
617.055	14071.25
617.25	14196.18
617.445	14167.51
617.641	14044.63
617.836	14196.18
618.031	13856.22
618.226	14110.16
618.421	14093.78
618.616	13909.46
618.811	13768.15
619.006	13934.04
619.201	13831.64
619.396	13587.93
619.591	13372.89
619.786	13555.16
619.981	13555.16
620.176	13483.48
620.371	13268.45
620.566	13370.85
620.761	13245.92
620.956	13323.74
621.151	12754.41
621.346	13065.7
621.541	12934.63
621.735	13284.83
621.93	12983.78
622.125	12858.85
622.32	12852.71
622.515	12557.8
622.709	12484.08
622.904	12185.07
623.099	12414.45
623.294	12654.06
623.488	12180.98
623.683	12240.37
623.878	12142.07
624.072	12258.8
624.267	12000.76
624.462	12074.48
624.656	11988.47
624.851	11732.47
625.046	11638.27
625.24	11742.71
625.435	11630.07
625.629	11705.85
625.824	11582.97
626.018	11519.48
626.213	11177.47
626.407	11427.32
626.602	10970.63
626.796	11267.58
626.991	11296.25
627.185	11161.09
627.38	11101.7
627.574	10860.04
627.768	10909.19
627.963	10714.63
628.157	10645
628.352	10835.46
628.546	10522.12
628.74	10761.73
628.935	10327.57
629.129	10483.21
629.323	10520.07
629.517	10401.29
629.712	10481.16
629.906	10434.06
630.1	10272.27
630.294	10366.48
630.489	9995.79
630.683	10073.62
630.877	9973.27
631.071	9864.72
631.265	10018.32
631.459	9965.07
631.653	9741.85
631.848	9815.57
632.042	9756.18
632.236	10001.94
632.43	9772.57
632.624	9561.62
632.818	9618.97
633.012	9459.23
633.206	9352.73
633.4	9602.58
633.594	9479.71
633.788	9209.37
633.982	9270.81
634.176	9256.48
634.369	9164.32
634.563	9236
634.757	9135.65
634.951	9182.75
635.145	8988.19
635.339	9027.1
635.533	8826.4
635.726	8820.26
635.92	8685.09
636.114	8644.13
636.308	8709.67
636.501	8646.18
636.695	8576.55
636.889	8554.02
637.083	8603.18
637.276	8435.24
637.47	8437.29
637.664	8412.71
637.857	8379.95
638.051	8248.88
638.244	8310.32
638.438	8066.61
638.632	8074.8
638.825	7968.31
639.019	8087.09
639.212	7874.1
639.406	7898.67
639.599	7890.48
639.793	7878.19
639.986	7724.6
640.18	7677.49
640.373	7669.3
640.567	7591.48
640.76	7595.57
640.954	7495.22
641.147	7689.78
641.34	7484.98
641.534	7366.2
641.727	7566.9
641.92	7394.87
642.114	7386.68
642.307	7216.7
642.5	7347.77
642.694	7054.91
642.887	7145.02
643.08	7126.59
643.273	7226.94
643.467	6979.14
643.66	6891.07
643.853	6972.99
644.046	6889.03
644.239	6932.03
644.432	6790.72
644.626	6778.44
644.819	6864.45
645.012	6757.96
645.205	6696.52
645.398	6516.3
645.591	6760
645.784	6567.49
645.977	6540.87
646.17	6456.9
646.363	6544.97
646.556	6225.48
646.749	6288.97
646.942	6377.03
647.135	6270.54
647.328	6215.24
647.521	6317.64
647.714	6090.32
647.907	6078.03
648.099	6151.76
648.292	6086.22
648.485	5803.6
648.678	5887.57
648.871	5953.1
649.064	5822.03
649.256	5854.8
649.449	5879.38
649.642	5625.43
649.835	5885.52
650.027	5795.41
650.22	5611.09
650.413	5727.83
650.605	5715.54
650.798	5654.1
650.991	5475.93
651.183	5629.52
651.376	5437.02
651.568	5568.09
651.761	5418.58
651.954	5351
652.146	5299.8
652.339	5344.86
652.531	5240.41
652.724	5396.06
652.916	5178.97
653.109	5205.6
653.301	5246.55
653.494	5269.08
653.686	5135.96
653.879	5236.31
654.071	5095
654.263	4900.45
654.456	4990.56
654.648	4998.75
654.84	4922.98
655.033	4851.3
655.225	4906.59
655.417	4865.63
655.61	4918.88
655.802	4865.63
655.994	4849.25
656.186	4812.39
656.379	4705.89
656.571	4863.58
656.763	4761.19
656.955	4845.15
657.148	4640.36
657.34	4568.68
657.532	4525.67
657.724	4550.25
657.916	4398.7
658.108	4658.79
658.3	4441.7
658.492	4431.46
658.684	4529.77
658.876	4228.71
659.068	4408.94
659.26	4382.31
659.452	4449.89
659.644	4310.63
659.836	4212.33
660.028	4347.5
660.22	4144.75
660.412	4238.95
660.604	4181.61
660.796	4148.84
660.988	4101.74
661.18	3974.77
661.372	4005.49
661.563	4056.68
661.755	4060.78
661.947	4064.88
662.139	3905.14
662.331	3985.01
662.522	3952.24
662.714	3898.99
662.906	3909.23
663.097	3866.22
663.289	3802.74
663.481	3755.63
663.673	3890.8
663.864	3847.79
664.056	3753.59
664.247	3731.06
664.439	3667.57
664.631	3577.46
664.822	3724.91
665.014	3745.39
665.205	3692.15
665.397	3520.12
665.588	3507.83
665.78	3587.7
665.971	3473.01
666.163	3526.26
666.354	3559.03
666.546	3505.78
666.737	3450.49
666.929	3481.21
667.12	3425.91
667.311	3487.35
667.503	3257.98
667.694	3370.62
667.885	3274.36
668.077	3350.14
668.268	3313.27
668.459	3196.54
668.651	3413.62
668.842	3282.55
669.033	3235.45
669.224	3223.16
669.416	3319.42
669.607	3200.63
669.798	3253.88
669.989	3163.77
670.18	3153.53
670.371	3114.62
670.563	3231.35
670.754	3227.26
670.945	3081.85
671.136	3196.54
671.327	3114.62
671.518	3149.43
671.709	3065.47
671.9	3014.27
672.091	3022.46
672.282	3026.56
672.473	3059.32
672.664	3094.14
672.855	3026.56
673.046	3102.33
673.237	3128.95
673.428	3047.04
673.619	2913.92
673.809	2956.93
674	2973.31
674.191	2920.06
674.382	2932.35
674.573	2838.14
674.764	2909.82
674.954	2875.01
675.145	2784.9
675.336	2881.15
675.527	2850.43
675.717	2926.21
675.908	2713.22
676.099	2788.99
676.289	2811.52
676.48	2858.62
676.671	2762.37
676.861	2823.81
677.052	2836.1
677.243	2713.22
677.433	2688.64
677.624	2750.08
677.814	2698.88
678.005	2805.38
678.195	2819.71
678.386	2690.69
678.576	2700.93
678.767	2662.02
678.957	2608.77
679.148	2721.41
679.338	2780.8
679.529	2631.3
679.719	2596.48
679.909	2717.31
680.1	2614.91
680.29	2616.96
680.481	2508.42
680.671	2616.96
680.861	2621.06
681.052	2688.64
681.242	2737.79
681.432	2731.65
681.622	2657.92
681.813	2641.54
682.003	2633.35
682.193	2573.96
682.383	2432.65
682.573	2623.11
682.764	2543.24
682.954	2680.45
683.144	2518.66
683.334	2580.1
683.524	2625.15
683.714	2547.33
683.904	2580.1
684.094	2512.52
684.284	2500.23
684.474	2551.43
684.664	2487.94
684.854	2610.82
685.044	2621.06
685.234	2549.38
685.424	2528.9
685.614	2576
685.804	2479.75
685.994	2434.69
686.184	2549.38
686.374	2530.95
686.564	2500.23
686.753	2555.52
686.943	2506.37
687.133	2412.17
687.323	2520.71
687.513	2489.99
687.702	2434.69
687.892	2498.18
688.082	2485.89
688.272	2530.95
688.461	2498.18
688.651	2533
688.841	2465.41
689.03	2428.55
689.22	2399.88
689.41	2461.32
689.599	2463.37
689.789	2416.26
689.979	2383.49
690.168	2399.88
690.358	2324.1
690.547	2311.82
690.737	2356.87
690.926	2279.05
691.116	2414.21
691.305	2266.76
691.495	2317.96
691.684	2233.99
691.874	2354.82
692.063	2387.59
692.252	2399.88
692.442	2250.38
692.631	2293.38
692.82	2408.07
693.01	2354.82
693.199	2365.06
693.388	2309.77
693.578	2307.72
693.767	2451.08
693.956	2338.44
694.146	2322.06
694.335	2219.66
694.524	2352.77
694.713	2264.71
694.902	2543.24
695.092	2305.67
695.281	2274.95
695.47	2295.43
695.659	2395.78
695.848	2295.43
696.037	2354.82
696.226	2322.06
696.415	2295.43
696.604	2303.62
696.793	2354.82
696.982	2334.34
697.171	2356.87
697.36	2201.23
697.549	2219.66
697.738	2281.1
697.927	2313.86
698.116	2326.15
698.305	2367.11
698.494	2313.86
698.683	2299.53
698.872	2324.1
699.061	2277
699.25	2221.7
699.438	2242.18
699.627	2295.43
699.816	2432.65
700.005	2268.81
700.193	2244.23
700.382	2227.85
700.571	2305.67
700.76	2317.96
700.948	2338.44
701.137	2311.82
701.326	2330.25
701.514	2303.62
701.703	2172.55
701.892	2184.84
702.08	2283.14
702.269	2336.39
702.457	2244.23
702.646	2221.7
702.834	2102.92
703.023	2285.19
703.212	2270.86
703.4	2309.77
703.589	2193.03
703.777	2143.88
703.965	2244.23
704.154	2154.12
704.342	2254.47
704.531	2221.7
704.719	2129.55
704.907	2190.99
705.096	2143.88
705.284	2248.33
705.472	2203.27
705.661	2219.66
705.849	2207.37
706.037	2178.7
706.226	2127.5
706.414	2152.07
706.602	2199.18
706.79	2117.26
706.979	2166.41
707.167	2195.08
707.355	2172.55
707.543	2082.44
707.731	2193.03
707.919	2156.17
708.107	2111.11
708.296	2094.73
708.484	2029.2
708.672	2035.34
708.86	2035.34
709.048	1980.04
709.236	2137.74
709.424	2064.01
709.612	2051.72
709.8	1986.19
709.988	1994.38
710.176	2084.49
710.364	2006.67
710.551	2027.15
710.739	1978
710.927	2041.48
711.115	1920.65
711.303	2025.1
711.491	2057.87
711.679	2016.91
711.866	1949.32
712.054	1961.61
712.242	2037.39
712.43	1943.18
712.617	2016.91
712.805	1930.89
712.993	1934.99
713.181	1967.76
713.368	1963.66
713.556	1932.94
713.744	1947.28
713.931	2035.34
714.119	1853.07
714.306	1805.97
714.494	1881.74
714.682	1912.46
714.869	1924.75
715.057	1924.75
715.244	1851.02
715.432	1785.49
715.619	1855.12
715.807	1791.63
715.994	1820.3
716.182	1836.69
716.369	1883.79
716.556	1859.21
716.744	1820.3
716.931	1851.02
717.119	1797.78
717.306	1797.78
717.493	1705.62
717.681	1752.72
717.868	1879.69
718.055	1736.34
718.242	1730.19
718.43	1740.43
718.617	1771.15
718.804	1777.3
718.991	1746.58
719.179	1717.9
719.366	1683.09
719.553	1687.18
719.74	1803.92
719.927	1779.34
720.114	1674.9
720.301	1660.56
720.488	1621.65
720.676	1689.23
720.863	1635.99
721.05	1701.52
721.237	1748.62
721.424	1613.46
721.611	1685.14
721.798	1554.07
721.985	1644.18
722.172	1683.09
722.358	1683.09
722.545	1580.69
722.732	1541.78
722.919	1678.99
723.106	1605.27
723.293	1601.17
723.48	1613.46
723.667	1506.96
723.853	1472.15
724.04	1549.97
724.227	1521.3
724.414	1715.86
724.6	1629.84
724.787	1523.35
724.974	1521.3
725.161	1447.57
725.347	1537.68
725.534	1623.7
725.72	1472.15
725.907	1521.3
726.094	1644.18
726.28	1513.11
726.467	1466
726.653	1535.64
726.84	1443.48
727.027	1543.83
727.213	1451.67
727.4	1457.81
727.586	1576.59
727.773	1597.07
727.959	1545.88
728.145	1459.86
728.332	1509.01
728.518	1441.43
728.705	1547.92
728.891	1437.33
729.077	1486.48
729.264	1470.1
729.45	1431.19
729.636	1455.76
729.823	1394.33
730.009	1445.52
730.195	1496.72
730.382	1398.42
730.568	1390.23
730.754	1416.85
730.94	1408.66
731.126	1445.52
731.313	1402.52
731.499	1488.53
731.685	1386.13
731.871	1572.5
732.057	1390.23
732.243	1416.85
732.429	1449.62
732.615	1379.99
732.801	1410.71
732.987	1367.7
733.173	1289.88
733.359	1367.7
733.545	1326.74
733.731	1328.79
733.917	1420.95
734.103	1404.57
734.289	1312.41
734.475	1373.85
734.661	1404.57
734.847	1242.78
735.033	1302.17
735.219	1324.69
735.404	1412.76
735.59	1310.36
735.776	1302.17
735.962	1275.54
736.148	1330.84
736.333	1246.87
736.519	1271.45
736.705	1283.74
736.89	1238.68
737.076	1279.64
737.262	1287.83
737.447	1214.1
737.633	1248.92
737.819	1240.73
738.004	1322.65
738.19	1212.06
738.375	1285.78
738.561	1257.11
738.747	1250.97
738.932	1187.48
739.118	1293.97
739.303	1152.67
739.489	1212.06
739.674	1318.55
739.859	1316.5
740.045	1195.67
740.23	1240.73
740.416	1189.53
740.601	1267.35
740.786	1281.69
740.972	1171.1
741.157	1089.18
741.342	1240.73
741.528	1205.91
741.713	1173.14
741.898	1224.34
742.084	1169.05
742.269	1154.71
742.454	1113.75
742.639	1150.62
742.824	1046.17
743.01	1132.19
743.195	1171.1
743.38	1085.08
743.565	1105.56
743.75	1107.61
743.935	1097.37
744.12	1099.42
744.305	1113.75
744.49	1119.9
744.675	1044.12
744.86	1009.31
745.045	1134.23
745.23	1117.85
745.415	1072.79
745.6	1070.75
745.785	1058.46
745.97	1003.16
746.155	1121.95
746.34	1052.31
746.525	1040.03
746.71	1033.88
746.895	1003.16
747.079	1060.51
747.264	1117.85
747.449	1025.69
747.634	980.64
747.819	1070.75
748.003	990.88
748.188	986.78
748.373	960.16
748.557	1042.07
748.742	997.02
748.927	1013.4
749.111	970.4
749.296	1025.69
749.481	808.61
749.665	962.2
749.85	870.05
750.034	937.63
750.219	958.11
750.404	978.59
750.588	874.14
750.773	890.53
750.957	851.61
751.141	784.03
751.326	872.09
751.51	794.27
751.695	816.8
751.879	863.9
752.064	870.05
752.248	892.57
752.432	835.23
752.617	868
752.801	779.93
752.985	800.41
753.17	792.22
753.354	943.77
753.538	775.84
753.722	775.84
753.907	749.22
754.091	837.28
754.275	779.93
754.459	843.42
754.643	726.69
754.828	779.93
755.012	734.88
755.196	736.93
755.38	736.93
755.564	798.37
755.748	745.12
755.932	673.44
756.116	769.69
756.3	810.65
756.484	745.12
756.668	726.69
756.852	708.26
757.036	724.64
757.22	693.92
757.404	612
757.588	671.39
757.772	691.87
757.956	691.87
758.14	677.54
758.323	642.72
758.507	698.02
758.691	648.86
758.875	667.3
759.059	644.77
759.242	648.86
759.426	593.57
759.61	599.71
759.794	640.67
759.977	632.48
760.161	726.69
760.345	665.25
760.528	577.19
760.712	665.25
760.895	556.71
761.079	673.44
761.263	622.24
761.446	595.62
761.63	591.52
761.813	575.14
761.997	575.14
762.18	685.73
762.364	601.76
762.547	550.56
762.731	536.23
762.914	648.86
763.098	562.85
763.281	601.76
763.464	632.48
763.648	585.38
763.831	634.53
764.015	618.15
764.198	609.95
764.381	542.37
764.564	542.37
764.748	640.67
764.931	564.9
765.114	540.32
765.297	548.51
765.481	687.78
765.664	550.56
765.847	558.75
766.03	634.53
766.213	511.65
766.397	575.14
766.58	556.71
766.763	534.18
766.946	585.38
767.129	593.57
767.312	550.56
767.495	505.51
767.678	519.84
767.861	556.71
768.044	507.55
768.227	466.6
768.41	554.66
768.593	585.38
768.776	474.79
768.959	517.79
769.142	521.89
769.324	546.47
769.507	599.71
769.69	540.32
769.873	501.41
770.056	509.6
770.239	517.79
770.421	487.08
770.604	462.5
770.787	540.32
770.97	528.03
771.152	517.79
771.335	568.99
771.518	515.75
771.7	536.23
771.883	571.04
772.066	458.4
772.248	474.79
772.431	519.84
772.613	525.99
772.796	501.41
772.978	464.55
773.161	538.27
773.343	413.35
773.526	517.79
773.708	442.02
773.891	452.26
774.073	456.36
774.256	423.59
774.438	482.98
774.621	452.26
774.803	407.2
774.985	448.16
775.168	437.92
775.35	437.92
775.532	417.44
775.715	437.92
775.897	405.16
776.079	374.44
776.261	411.3
776.444	323.24
776.626	337.57
776.808	415.4
776.99	439.97
777.173	419.49
777.355	403.11
777.537	521.89
777.719	454.31
777.901	405.16
778.083	407.2
778.265	317.09
778.447	417.44
778.629	388.77
778.811	351.91
778.993	364.2
779.175	409.25
779.357	349.86
779.539	374.44
779.721	374.44
779.903	368.29
780.085	380.58
780.267	366.25
780.449	347.81
780.631	351.91
780.812	331.43
780.994	403.11
781.176	423.59
781.358	304.81
781.54	251.56
781.721	317.09
781.903	315.05
782.085	323.24
782.267	349.86
782.448	272.04
782.63	259.75
782.812	298.66
782.993	356.01
783.175	263.85
783.357	306.85
783.538	333.48
783.72	261.8
783.901	284.33
784.083	296.61
784.264	315.05
784.446	245.41
784.627	321.19
784.809	319.14
784.99	364.2
785.172	249.51
785.353	222.89
785.535	323.24
785.716	286.37
785.897	274.09
786.079	292.52
786.26	222.89
786.441	269.99
786.623	290.47
786.804	226.98
786.985	224.94
787.167	267.94
787.348	216.74
787.529	171.69
787.71	265.89
787.891	321.19
788.073	259.75
788.254	272.04
788.435	282.28
788.616	245.41
788.797	241.32
788.978	261.8
789.159	231.08
789.34	204.46
789.522	186.02
789.703	229.03
789.884	255.65
790.065	298.66
790.246	165.54
790.427	263.85
790.607	224.94
790.788	190.12
790.969	165.54
791.15	220.84
791.331	218.79
791.512	265.89
791.693	282.28
791.874	290.47
792.054	308.9
792.235	196.26
792.416	202.41
792.597	198.31
792.778	177.83
792.958	171.69
793.139	179.88
793.32	233.13
793.5	136.87
793.681	128.68
793.862	183.98
794.042	179.88
794.223	177.83
794.404	206.5
794.584	159.4
794.765	140.97
794.945	171.69
795.126	192.17
795.306	183.98
795.487	108.2
795.667	165.54
795.848	210.6
796.028	206.5
796.209	122.54
796.389	198.31
796.57	177.83
796.75	181.93
796.93	204.46
797.111	202.41
797.291	165.54
797.471	140.97
797.652	143.02
797.832	155.3
798.012	188.07
798.192	124.58
798.373	165.54
798.553	136.87
798.733	124.58
798.913	163.5
799.093	204.46
799.274	89.77
799.454	165.54
799.634	200.36
799.814	212.65
799.994	143.02
800.174	153.26
800.354	143.02
800.534	102.06
800.714	159.4
800.894	155.3
801.074	159.4
801.254	122.54
801.434	173.74
801.614	16.04
801.794	79.53
801.974	313
802.154	155.3
802.334	91.82
802.514	71.34
802.693	114.34
802.873	153.26
803.053	155.3
803.233	138.92
803.413	102.06
803.592	153.26
803.772	177.83
803.952	147.11
804.131	110.25
804.311	128.68
804.491	276.13
804.67	132.78
804.85	46.76
805.03	167.59
805.209	186.02
805.389	173.74
805.568	134.82
805.748	106.15
805.928	155.3
806.107	145.06
806.287	198.31
806.466	155.3
806.646	229.03
806.825	118.44
807.004	87.72
807.184	77.48
807.363	140.97
807.543	181.93
807.722	120.49
807.901	108.2
808.081	102.06
808.26	52.91
808.439	48.81
808.619	163.5
808.798	54.95
808.977	102.06
809.156	186.02
809.336	120.49
809.515	79.53
809.694	147.11
809.873	97.96
810.052	50.86
810.231	85.67
810.411	79.53
810.59	145.06
810.769	61.1
810.948	128.68
811.127	-65.88
811.306	32.43
811.485	100.01
811.664	69.29
811.843	116.39
812.022	108.2
812.201	79.53
812.38	79.53
812.559	24.23
812.737	118.44
812.916	108.2
813.095	77.48
813.274	57
813.453	116.39
813.632	118.44
813.811	104.11
813.989	71.34
814.168	77.48
814.347	81.58
814.526	112.3
814.704	147.11
814.883	108.2
815.062	61.1
815.24	65.19
815.419	7.85
815.598	85.67
815.776	69.29
815.955	126.63
816.133	30.38
816.312	59.05
816.49	-10.58
816.669	54.95
816.847	48.81
817.026	120.49
817.204	50.86
817.383	87.72
817.561	67.24
817.74	46.76
817.918	63.15
818.097	61.1
818.275	95.91
818.453	124.58
818.632	54.95
818.81	36.52
818.988	134.82
819.167	65.19
819.345	61.1
819.523	149.16
819.701	61.1
819.879	132.78
820.058	79.53
820.236	106.15
820.414	20.14
820.592	36.52
820.77	102.06
820.948	89.77
821.127	34.47
821.305	69.29
821.483	130.73
821.661	71.34
821.839	138.92
822.017	38.57
822.195	54.95
822.373	85.67
822.551	50.86
822.729	3.75
822.907	93.87
823.085	54.95
823.262	-14.68
823.44	40.62
823.618	63.15
823.796	1.71
823.974	11.95
824.152	91.82
824.329	54.95
824.507	26.28
824.685	7.85
824.863	95.91
825.04	95.91
825.218	65.19
825.396	71.34
825.574	63.15
825.751	91.82
825.929	87.72
826.107	89.77
826.284	61.1
826.462	97.96
826.639	20.14
826.817	67.24
826.994	75.43
827.172	-41.3
827.349	83.63
827.527	67.24
827.704	-8.53
827.882	155.3
828.059	22.19
828.237	-14.68
828.414	28.33
828.591	24.23
828.769	81.58
828.946	79.53
829.124	32.43
829.301	85.67
829.478	67.24
829.655	71.34
829.833	7.85
830.01	-2.39
830.187	83.63
830.364	85.67
830.542	71.34
830.719	34.47
830.896	-16.73
831.073	13.99
831.25	54.95
831.427	126.63
831.604	48.81
831.782	59.05
831.959	69.29
832.136	87.72
832.313	46.76
832.49	26.28
832.667	106.15
832.844	-24.92
833.021	20.14
833.198	52.91
833.374	71.34
833.551	97.96
833.728	5.8
833.905	32.43
834.082	44.71
834.259	77.48
834.436	136.87
834.612	-16.73
834.789	50.86
834.966	18.09
835.143	75.43
835.319	-16.73
835.496	97.96
835.673	81.58
835.85	-8.53
836.026	-2.39
836.203	85.67
836.38	44.71
836.556	97.96
836.733	46.76
836.909	7.85
837.086	81.58
837.262	24.23
837.439	-22.87
837.616	9.9
837.792	40.62
837.968	-12.63
838.145	3.75
838.321	7.85
838.498	-8.53
838.674	40.62
838.851	48.81
839.027	-6.49
839.203	9.9
839.38	61.1
839.556	65.19
839.732	106.15
839.909	18.09
840.085	89.77
840.261	11.95
840.437	85.67
840.614	71.34
840.79	5.8
840.966	93.87
841.142	-22.87
841.318	73.39
841.494	57
841.671	52.91
841.847	71.34
842.023	-16.73
842.199	71.34
842.375	20.14
842.551	38.57
842.727	-4.44
842.903	69.29
843.079	-20.82
843.255	-8.53
843.431	30.38
843.607	-14.68
843.783	65.19
843.959	85.67
844.134	-24.92
844.31	-24.92
844.486	26.28
844.662	20.14
844.838	24.23
845.013	5.8
845.189	13.99
845.365	97.96
845.541	32.43
845.716	57
845.892	65.19
846.068	48.81
846.244	38.57
846.419	65.19
846.595	1.71
846.77	-61.78
846.946	44.71
847.122	26.28
847.297	-26.96
847.473	28.33
847.648	11.95
847.824	7.85
847.999	32.43
848.175	24.23
848.35	20.14
848.526	61.1
848.701	44.71
848.876	18.09
849.052	71.34
849.227	22.19
849.403	13.99
849.578	-6.49
849.753	32.43
849.929	85.67
850.104	67.24
850.279	26.28
850.454	-26.96
850.63	44.71
850.805	61.1
850.98	28.33
851.155	30.38
851.33	38.57
851.505	-29.01
851.681	28.33
851.856	61.1
852.031	-14.68
852.206	16.04
852.381	26.28
852.556	38.57
852.731	50.86
852.906	11.95
853.081	30.38
853.256	50.86
853.431	93.87
853.606	-10.58
853.781	57
853.956	-4.44
854.131	108.2
854.305	32.43
854.48	-26.96
854.655	-2.39
854.83	59.05
855.005	-65.88
855.18	-14.68
855.354	16.04
855.529	73.39
855.704	-86.36
855.879	102.06
856.053	30.38
856.228	30.38
856.403	-4.44
856.577	69.29
856.752	-2.39
856.926	46.76
857.101	40.62
857.276	5.8
857.45	24.23
857.625	-0.34
857.799	34.47
857.974	-4.44
858.148	-20.82
858.323	71.34
858.497	-57.68
858.672	69.29
858.846	-18.77
859.02	30.38
859.195	-43.35
859.369	57
859.543	26.28
859.718	57
859.892	5.8
860.066	1.71
860.241	26.28
860.415	5.8
860.589	52.91
860.763	38.57
860.938	61.1
861.112	-22.87
861.286	34.47
861.46	1.71
861.634	28.33
861.808	36.52
861.982	-8.53
862.157	38.57
862.331	42.67
862.505	-33.11
862.679	16.04
862.853	-67.92
863.027	28.33
863.201	40.62
863.375	34.47
863.549	44.71
863.722	-2.39
863.896	-26.96
864.07	-24.92
864.244	34.47
864.418	-18.77
864.592	110.25
864.766	-24.92
864.939	38.57
865.113	71.34
865.287	-12.63
865.461	-26.96
865.634	40.62
865.808	-4.44
865.982	52.91
866.156	24.23
866.329	-10.58
866.503	-69.97
866.676	38.57
866.85	26.28
867.024	11.95
867.197	-6.49
867.371	-18.77
867.544	13.99
867.718	30.38
867.891	-45.4
868.065	28.33
868.238	11.95
868.412	124.58
868.585	67.24
868.759	-43.35
868.932	59.05
869.105	50.86
869.279	24.23
869.452	13.99
869.625	-26.96
869.799	85.67
869.972	5.8
870.145	-12.63
870.319	18.09
870.492	-112.98
870.665	34.47
870.838	26.28
871.011	-20.82
871.185	46.76
871.358	-2.39
871.531	36.52
871.704	-31.06
871.877	18.09
872.05	-18.77
872.223	69.29
872.396	3.75
872.569	5.8
872.742	63.15
872.915	-20.82
873.088	44.71
873.261	85.67
873.434	81.58
873.607	77.48
873.78	16.04
873.953	24.23
874.126	40.62
874.299	-8.53
874.471	71.34
874.644	-0.34
874.817	-14.68
874.99	50.86
875.163	46.76
875.335	-10.58
875.508	26.28
875.681	54.95
875.853	-35.16
876.026	7.85
876.199	13.99
876.371	50.86
876.544	1.71
876.717	5.8
876.889	59.05
877.062	-47.44
877.234	-0.34
877.407	77.48
877.579	22.19
877.752	52.91
877.924	-22.87
878.097	30.38
878.269	-55.64
878.442	22.19
878.614	-24.92
878.786	-6.49
878.959	-6.49
879.131	-0.34
879.303	-0.34
879.476	-6.49
879.648	44.71
879.82	61.1
879.993	22.19
880.165	5.8
880.337	20.14
880.509	77.48
880.681	32.43
880.854	13.99
881.026	-18.77
881.198	102.06
881.37	18.09
881.542	-24.92
881.714	26.28
881.886	18.09
882.058	-4.44
882.23	13.99
882.402	-59.73
882.574	71.34
882.746	59.05
882.918	-16.73
883.09	-10.58
883.262	11.95
883.434	-12.63
883.606	5.8
883.778	52.91
883.95	-2.39
884.122	3.75
884.293	1.71
884.465	20.14
884.637	-26.96
884.809	-31.06
884.98	81.58
885.152	48.81
885.324	-6.49
885.496	59.05
885.667	71.34
885.839	-12.63
886.011	40.62
886.182	32.43
886.354	69.29
886.525	24.23
886.697	-0.34
886.869	16.04
887.04	11.95
887.212	71.34
887.383	87.72
887.555	-10.58
887.726	89.77
887.897	-29.01
888.069	75.43
888.24	24.23
888.412	16.04
888.583	26.28
888.754	5.8
888.926	9.9
889.097	34.47
889.268	-31.06
889.44	38.57
889.611	-20.82
889.782	-2.39
889.953	-4.44
890.125	-2.39
890.296	40.62
890.467	44.71
890.638	-0.34
890.809	-4.44
890.98	48.81
891.151	34.47
891.323	9.9
891.494	22.19
891.665	81.58
891.836	-16.73
892.007	-49.49
892.178	-76.12
892.349	28.33
892.52	89.77
892.691	69.29
892.862	57
893.032	-6.49
893.203	63.15
893.374	-10.58
893.545	40.62
893.716	-39.25
893.887	-67.92
894.057	-41.3
894.228	13.99
894.399	34.47
894.57	48.81
894.74	5.8
894.911	38.57
895.082	13.99
895.253	48.81
895.423	22.19
895.594	-0.34
895.764	59.05
895.935	28.33
896.106	-35.16
896.276	-16.73
896.447	-76.12
896.617	3.75
896.788	44.71
896.958	-72.02
897.129	13.99
897.299	-8.53
897.47	-92.5
897.64	38.57
897.81	-6.49
897.981	28.33
898.151	-26.96
898.322	69.29
898.492	20.14
898.662	32.43
898.832	18.09
899.003	7.85
899.173	-8.53
899.343	18.09
899.513	9.9
